/////////////////////////////////////////////////////////////////////////////////
/// Profile Data Ascii Dump (XRD)                                             ///
/////////////////////////////////////////////////////////////////////////////////

  Group     : TPU
  Data      : Ti3AlC2_1250C_100MPa_5min
  File Name : Ti3AlC2_1250C_100MPa_5min.RAW

# Profile Datafile
          comment             = Ti3AlC2_1250C_100MPa_5min 
          date & time         = 04-30-20 12:36:31 

# Measurement Condition
    X-ray tube
          target              = Cu 
          voltage             = 40.0 (kV)
          current             = 30.0 (mA)
    Slits
          divergence slit     = 1.00000 (deg) 
          scatter slit        = 0.00000 (deg) 
          receiving slit      = 0.00000 (mm)  
    Scanning
          drive axis          = Theta-2Theta 
          scan range          =    5.000 -   90.013 
          scan mode           = ?????? 
          scan speed          =   5.0000 (deg/min) 
          sampling pitch      =   0.0143 (deg) 
          preset time         =  42.97 (sec) 

# Data      [ Total No. = 5946 ]
  <2Theta>   <   I   >
     5.0000      5675
     5.0143      5654
     5.0286      5612
     5.0429      5652
     5.0572      5678
     5.0715      5807
     5.0858      5801
     5.1001      5569
     5.1144      5782
     5.1287      5536
     5.1430      5598
     5.1573      5780
     5.1716      5734
     5.1859      5703
     5.2002      5758
     5.2145      5826
     5.2288      5686
     5.2431      5690
     5.2574      5758
     5.2717      5751
     5.2860      5725
     5.3003      5760
     5.3146      5678
     5.3289      5742
     5.3432      5745
     5.3575      5498
     5.3718      5386
     5.3861      5399
     5.4004      5549
     5.4147      5489
     5.4290      5340
     5.4433      5437
     5.4576      5506
     5.4719      5464
     5.4862      5506
     5.5005      5583
     5.5148      5594
     5.5291      5395
     5.5434      5530
     5.5577      5458
     5.5720      5528
     5.5863      5448
     5.6006      5463
     5.6149      5404
     5.6292      5537
     5.6435      5469
     5.6578      5471
     5.6721      5491
     5.6864      5623
     5.7007      5350
     5.7150      5205
     5.7293      5354
     5.7436      5296
     5.7579      5262
     5.7722      5304
     5.7865      5268
     5.8008      5349
     5.8151      5321
     5.8294      5322
     5.8437      5376
     5.8580      5371
     5.8723      5305
     5.8866      5180
     5.9009      5384
     5.9152      5346
     5.9295      5545
     5.9438      5499
     5.9581      5387
     5.9724      5351
     5.9867      5303
     6.0010      5210
     6.0153      5400
     6.0296      5525
     6.0439      5525
     6.0582      5138
     6.0725      5311
     6.0868      5233
     6.1011      5093
     6.1154      5213
     6.1297      5166
     6.1440      5179
     6.1583      5185
     6.1726      5230
     6.1869      5229
     6.2012      5281
     6.2155      5176
     6.2298      5228
     6.2441      5256
     6.2584      5290
     6.2727      5335
     6.2870      5203
     6.3013      5284
     6.3156      5091
     6.3299      5275
     6.3442      5248
     6.3585      5277
     6.3728      5246
     6.3871      5347
     6.4014      5347
     6.4157      5047
     6.4300      5049
     6.4443      5070
     6.4586      5096
     6.4729      5159
     6.4872      4938
     6.5015      5130
     6.5158      5013
     6.5301      4905
     6.5444      4972
     6.5587      5054
     6.5730      4976
     6.5873      5057
     6.6016      5041
     6.6159      5103
     6.6302      5055
     6.6445      5046
     6.6588      5232
     6.6731      5033
     6.6874      5144
     6.7017      5052
     6.7160      5029
     6.7303      5178
     6.7446      4992
     6.7589      4992
     6.7732      4832
     6.7875      5077
     6.8018      5114
     6.8161      4951
     6.8304      5013
     6.8447      4961
     6.8590      4902
     6.8733      5010
     6.8876      4973
     6.9019      4907
     6.9162      4986
     6.9305      4903
     6.9448      4960
     6.9591      4978
     6.9734      5071
     6.9877      5043
     7.0020      4900
     7.0163      4859
     7.0306      5028
     7.0449      5049
     7.0592      5042
     7.0735      5043
     7.0878      4935
     7.1021      4907
     7.1164      4907
     7.1307      4994
     7.1450      4863
     7.1593      4971
     7.1736      4896
     7.1879      4888
     7.2022      4955
     7.2165      4896
     7.2308      4837
     7.2451      4885
     7.2594      4808
     7.2737      4937
     7.2880      4797
     7.3023      4823
     7.3166      4832
     7.3309      4910
     7.3452      5020
     7.3595      4886
     7.3738      4906
     7.3881      5011
     7.4024      4896
     7.4167      4854
     7.4310      4918
     7.4453      5019
     7.4596      4872
     7.4739      4872
     7.4882      4715
     7.5025      4782
     7.5168      4799
     7.5311      4790
     7.5454      4868
     7.5597      4798
     7.5740      4814
     7.5883      4844
     7.6026      4972
     7.6169      4929
     7.6312      4799
     7.6455      4906
     7.6598      4880
     7.6741      4841
     7.6884      4889
     7.7027      4943
     7.7170      4798
     7.7313      5063
     7.7456      4840
     7.7599      4902
     7.7742      4901
     7.7885      4928
     7.8028      4896
     7.8171      4911
     7.8314      4911
     7.8457      4787
     7.8600      4714
     7.8743      4827
     7.8886      4906
     7.9029      4790
     7.9172      4753
     7.9315      4812
     7.9458      4833
     7.9601      4920
     7.9744      4889
     7.9887      4827
     8.0030      4771
     8.0173      4840
     8.0316      4890
     8.0459      4771
     8.0602      4806
     8.0745      4896
     8.0888      4913
     8.1031      4943
     8.1174      4949
     8.1317      4860
     8.1460      5042
     8.1603      5053
     8.1746      5025
     8.1889      5025
     8.2032      4679
     8.2175      4782
     8.2318      4884
     8.2461      4811
     8.2604      4896
     8.2747      4832
     8.2890      4948
     8.3033      4790
     8.3176      4852
     8.3319      4913
     8.3462      4980
     8.3605      4857
     8.3748      4916
     8.3891      4834
     8.4034      5063
     8.4177      5032
     8.4320      4991
     8.4463      4988
     8.4606      4897
     8.4749      4939
     8.4892      4974
     8.5035      4975
     8.5178      5100
     8.5321      5028
     8.5464      5028
     8.5607      4883
     8.5750      4904
     8.5893      4991
     8.6036      4890
     8.6179      5000
     8.6322      4904
     8.6465      4947
     8.6608      4973
     8.6751      4972
     8.6894      4926
     8.7037      4873
     8.7180      4962
     8.7323      4950
     8.7466      5040
     8.7609      5042
     8.7752      5130
     8.7895      5023
     8.8038      5012
     8.8181      5130
     8.8324      5135
     8.8467      5151
     8.8610      5255
     8.8753      5102
     8.8896      5164
     8.9039      5164
     8.9182      5066
     8.9325      4963
     8.9468      5105
     8.9611      5132
     8.9754      5272
     8.9897      5308
     9.0040      5222
     9.0183      5113
     9.0326      5219
     9.0469      5310
     9.0612      5307
     9.0755      5402
     9.0898      5380
     9.1041      5392
     9.1184      5304
     9.1327      5503
     9.1470      5437
     9.1613      5454
     9.1756      5484
     9.1899      5506
     9.2042      5621
     9.2185      5669
     9.2328      5682
     9.2471      5759
     9.2614      5759
     9.2757      5954
     9.2900      5950
     9.3043      5932
     9.3186      5905
     9.3329      5984
     9.3472      6027
     9.3615      6080
     9.3758      6144
     9.3901      6274
     9.4044      6419
     9.4187      6419
     9.4330      6782
     9.4473      6648
     9.4616      6837
     9.4759      6985
     9.4902      7256
     9.5045      7312
     9.5188      7480
     9.5331      7644
     9.5474      7937
     9.5617      7879
     9.5760      8350
     9.5903      8433
     9.6046      8663
     9.6189      8663
     9.6332      9283
     9.6475      9711
     9.6618     10247
     9.6761     10590
     9.6904     11462
     9.7047     12083
     9.7190     12745
     9.7333     13917
     9.7476     14978
     9.7619     15835
     9.7762     16468
     9.7905     16319
     9.8048     15267
     9.8191     13744
     9.8334     11709
     9.8477      9692
     9.8620      8089
     9.8763      7032
     9.8906      6503
     9.9049      6235
     9.9192      6054
     9.9335      5713
     9.9478      5674
     9.9621      5663
     9.9764      5663
     9.9907      5469
    10.0050      5301
    10.0193      5378
    10.0336      5257
    10.0479      5455
    10.0622      5301
    10.0765      5283
    10.0908      5322
    10.1051      5341
    10.1194      5349
    10.1337      5190
    10.1480      5193
    10.1623      5140
    10.1766      5146
    10.1909      5257
    10.2052      5236
    10.2195      5237
    10.2338      5112
    10.2481      5224
    10.2624      5194
    10.2767      5208
    10.2910      5165
    10.3053      5192
    10.3196      5237
    10.3339      5237
    10.3482      5082
    10.3625      5039
    10.3768      5062
    10.3911      5209
    10.4054      5223
    10.4197      5145
    10.4340      5125
    10.4483      5117
    10.4626      5025
    10.4769      5114
    10.4912      5093
    10.5055      5052
    10.5198      4984
    10.5341      5058
    10.5484      5107
    10.5627      4952
    10.5770      5120
    10.5913      5169
    10.6056      4991
    10.6199      5133
    10.6342      5259
    10.6485      5294
    10.6628      5165
    10.6771      4986
    10.6914      4986
    10.7057      5113
    10.7200      5060
    10.7343      5006
    10.7486      4992
    10.7629      5150
    10.7772      4944
    10.7915      5113
    10.8058      5212
    10.8201      5133
    10.8344      4975
    10.8487      5172
    10.8630      5060
    10.8773      5104
    10.8916      5033
    10.9059      5062
    10.9202      5057
    10.9345      5084
    10.9488      5171
    10.9631      5159
    10.9774      5177
    10.9917      5112
    11.0060      5262
    11.0203      4976
    11.0346      5132
    11.0489      5132
    11.0632      5027
    11.0775      5063
    11.0918      5007
    11.1061      5070
    11.1204      5017
    11.1347      5083
    11.1490      4898
    11.1633      5057
    11.1776      5066
    11.1919      4979
    11.2062      4926
    11.2205      4986
    11.2348      4962
    11.2491      4981
    11.2634      5004
    11.2777      5010
    11.2920      5152
    11.3063      5002
    11.3206      5209
    11.3349      5057
    11.3492      5055
    11.3635      5018
    11.3778      5056
    11.3921      5060
    11.4064      5060
    11.4207      5031
    11.4350      5041
    11.4493      5136
    11.4636      4925
    11.4779      5055
    11.4922      5014
    11.5065      4946
    11.5208      5010
    11.5351      4970
    11.5494      4841
    11.5637      5045
    11.5780      4889
    11.5923      5046
    11.6066      5218
    11.6209      4965
    11.6352      5063
    11.6495      5060
    11.6638      5134
    11.6781      4975
    11.6924      5090
    11.7067      5020
    11.7210      5035
    11.7353      5148
    11.7496      5107
    11.7639      5107
    11.7782      4975
    11.7925      5036
    11.8068      5079
    11.8211      4991
    11.8354      5060
    11.8497      5000
    11.8640      4964
    11.8783      5026
    11.8926      5052
    11.9069      5072
    11.9212      5008
    11.9355      4973
    11.9498      4974
    11.9641      5179
    11.9784      5087
    11.9927      5057
    12.0070      5086
    12.0213      5115
    12.0356      5065
    12.0499      5207
    12.0642      5062
    12.0785      5018
    12.0928      5084
    12.1071      5054
    12.1214      5054
    12.1357      5016
    12.1500      5046
    12.1643      4960
    12.1786      5052
    12.1929      5180
    12.2072      5049
    12.2215      5012
    12.2358      5038
    12.2501      4995
    12.2644      5038
    12.2787      4985
    12.2930      5033
    12.3073      4984
    12.3216      4925
    12.3359      5065
    12.3502      5063
    12.3645      5020
    12.3788      4948
    12.3931      4965
    12.4074      5049
    12.4217      5102
    12.4360      5076
    12.4503      5008
    12.4646      5022
    12.4789      5022
    12.4932      4963
    12.5075      5045
    12.5218      5017
    12.5361      5090
    12.5504      5117
    12.5647      5086
    12.5790      4836
    12.5933      4923
    12.6076      5041
    12.6219      5060
    12.6362      5150
    12.6505      4949
    12.6648      4958
    12.6791      4927
    12.6934      5051
    12.7077      5040
    12.7220      5059
    12.7363      5000
    12.7506      4951
    12.7649      5064
    12.7792      5049
    12.7935      5081
    12.8078      5105
    12.8221      5064
    12.8364      5064
    12.8507      4954
    12.8650      4937
    12.8793      5119
    12.8936      4953
    12.9079      5053
    12.9222      4848
    12.9365      5022
    12.9508      5094
    12.9651      5047
    12.9794      5077
    12.9937      4903
    13.0080      4906
    13.0223      5068
    13.0366      5068
    13.0509      4864
    13.0652      5042
    13.0795      4974
    13.0938      5056
    13.1081      5043
    13.1224      5030
    13.1367      5127
    13.1510      5173
    13.1653      5163
    13.1796      5143
    13.1939      5143
    13.2082      5030
    13.2225      5119
    13.2368      5177
    13.2511      4957
    13.2654      4966
    13.2797      5039
    13.2940      5081
    13.3083      4865
    13.3226      5062
    13.3369      4970
    13.3512      5003
    13.3655      5123
    13.3798      4939
    13.3941      4975
    13.4084      4883
    13.4227      4981
    13.4370      4963
    13.4513      4953
    13.4656      5117
    13.4799      5007
    13.4942      5018
    13.5085      4964
    13.5228      5069
    13.5371      5088
    13.5514      5088
    13.5657      4910
    13.5800      4945
    13.5943      4935
    13.6086      4861
    13.6229      4981
    13.6372      5010
    13.6515      5054
    13.6658      5088
    13.6801      5089
    13.6944      4955
    13.7087      5066
    13.7230      4945
    13.7373      5045
    13.7516      5015
    13.7659      4960
    13.7802      5120
    13.7945      5214
    13.8088      5057
    13.8231      4958
    13.8374      5069
    13.8517      5053
    13.8660      4966
    13.8803      4954
    13.8946      4895
    13.9089      4895
    13.9232      4973
    13.9375      4909
    13.9518      5012
    13.9661      5034
    13.9804      5001
    13.9947      4994
    14.0090      4920
    14.0233      5019
    14.0376      5116
    14.0519      5107
    14.0662      5132
    14.0805      4961
    14.0948      5074
    14.1091      4946
    14.1234      4946
    14.1377      4960
    14.1520      4908
    14.1663      5007
    14.1806      5134
    14.1949      5118
    14.2092      5117
    14.2235      5026
    14.2378      4933
    14.2521      4973
    14.2664      4973
    14.2807      4867
    14.2950      4866
    14.3093      4955
    14.3236      4859
    14.3379      4931
    14.3522      4888
    14.3665      5000
    14.3808      4924
    14.3951      5000
    14.4094      4928
    14.4237      4987
    14.4380      4934
    14.4523      4881
    14.4666      4969
    14.4809      4979
    14.4952      5001
    14.5095      5041
    14.5238      4986
    14.5381      5012
    14.5524      5053
    14.5667      5169
    14.5810      5034
    14.5953      5036
    14.6096      4994
    14.6239      4994
    14.6382      4873
    14.6525      4977
    14.6668      5027
    14.6811      4958
    14.6954      5038
    14.7097      4879
    14.7240      5039
    14.7383      5013
    14.7526      5002
    14.7669      4906
    14.7812      4954
    14.7955      4796
    14.8098      4878
    14.8241      4997
    14.8384      4929
    14.8527      4992
    14.8670      5010
    14.8813      4969
    14.8956      4881
    14.9099      4939
    14.9242      4902
    14.9385      5047
    14.9528      4930
    14.9671      4996
    14.9814      4996
    14.9957      4943
    15.0100      4780
    15.0243      4921
    15.0386      4996
    15.0529      4918
    15.0672      4896
    15.0815      4929
    15.0958      4883
    15.1101      4890
    15.1244      4870
    15.1387      4851
    15.1530      4940
    15.1673      4883
    15.1816      4891
    15.1959      4948
    15.2102      4914
    15.2245      4954
    15.2388      4935
    15.2531      5025
    15.2674      5020
    15.2817      5148
    15.2960      5027
    15.3103      5015
    15.3246      5000
    15.3389      5000
    15.3532      4806
    15.3675      4873
    15.3818      4928
    15.3961      4796
    15.4104      4845
    15.4247      4870
    15.4390      4927
    15.4533      4986
    15.4676      4798
    15.4819      4862
    15.4962      4993
    15.5105      4981
    15.5248      4902
    15.5391      4886
    15.5534      4923
    15.5677      4945
    15.5820      4958
    15.5963      4961
    15.6106      4908
    15.6249      4966
    15.6392      4873
    15.6535      4891
    15.6678      4806
    15.6821      4902
    15.6964      4902
    15.7107      4789
    15.7250      4855
    15.7393      4803
    15.7536      4914
    15.7679      4808
    15.7822      4828
    15.7965      4890
    15.8108      4824
    15.8251      4781
    15.8394      4892
    15.8537      4996
    15.8680      4839
    15.8823      4787
    15.8966      4742
    15.9109      4728
    15.9252      4984
    15.9395      4893
    15.9538      4963
    15.9681      4935
    15.9824      4742
    15.9967      4964
    16.0110      4929
    16.0253      4949
    16.0396      4936
    16.0539      4936
    16.0682      4868
    16.0825      4846
    16.0968      4880
    16.1111      4898
    16.1254      4745
    16.1397      4743
    16.1540      4822
    16.1683      4874
    16.1826      4825
    16.1969      4703
    16.2112      4701
    16.2255      4688
    16.2398      4781
    16.2541      4781
    16.2684      4826
    16.2827      4916
    16.2970      4806
    16.3113      4921
    16.3256      4846
    16.3399      4955
    16.3542      4814
    16.3685      4819
    16.3828      4743
    16.3971      4955
    16.4114      4955
    16.4257      4818
    16.4400      4831
    16.4543      4824
    16.4686      4627
    16.4829      4613
    16.4972      4808
    16.5115      4741
    16.5258      4854
    16.5401      4718
    16.5544      4868
    16.5687      4802
    16.5830      4894
    16.5973      4766
    16.6116      4784
    16.6259      4711
    16.6402      4711
    16.6545      4857
    16.6688      4754
    16.6831      4785
    16.6974      4690
    16.7117      4886
    16.7260      4804
    16.7403      4677
    16.7546      4719
    16.7689      4719
    16.7832      4691
    16.7975      4717
    16.8118      4732
    16.8261      4669
    16.8404      4722
    16.8547      4796
    16.8690      4636
    16.8833      4801
    16.8976      4756
    16.9119      4624
    16.9262      4825
    16.9405      4739
    16.9548      4564
    16.9691      4716
    16.9834      4534
    16.9977      4797
    17.0120      4873
    17.0263      4803
    17.0406      4627
    17.0549      4730
    17.0692      4757
    17.0835      4801
    17.0978      4771
    17.1121      4721
    17.1264      4721
    17.1407      4667
    17.1550      4626
    17.1693      4739
    17.1836      4620
    17.1979      4623
    17.2122      4802
    17.2265      4677
    17.2408      4683
    17.2551      4746
    17.2694      4591
    17.2837      4698
    17.2980      4658
    17.3123      4696
    17.3266      4612
    17.3409      4706
    17.3552      4730
    17.3695      4743
    17.3838      4724
    17.3981      4597
    17.4124      4648
    17.4267      4743
    17.4410      4547
    17.4553      4639
    17.4696      4612
    17.4839      4612
    17.4982      4617
    17.5125      4551
    17.5268      4573
    17.5411      4441
    17.5554      4649
    17.5697      4730
    17.5840      4544
    17.5983      4642
    17.6126      4665
    17.6269      4487
    17.6412      4719
    17.6555      4487
    17.6698      4567
    17.6841      4569
    17.6984      4508
    17.7127      4676
    17.7270      4497
    17.7413      4519
    17.7556      4609
    17.7699      4592
    17.7842      4566
    17.7985      4484
    17.8128      4567
    17.8271      4549
    17.8414      4549
    17.8557      4511
    17.8700      4405
    17.8843      4532
    17.8986      4571
    17.9129      4513
    17.9272      4604
    17.9415      4569
    17.9558      4462
    17.9701      4415
    17.9844      4553
    17.9987      4565
    18.0130      4575
    18.0273      4592
    18.0416      4539
    18.0559      4426
    18.0702      4644
    18.0845      4517
    18.0988      4520
    18.1131      4508
    18.1274      4462
    18.1417      4546
    18.1560      4479
    18.1703      4525
    18.1846      4572
    18.1989      4572
    18.2132      4505
    18.2275      4432
    18.2418      4616
    18.2561      4477
    18.2704      4557
    18.2847      4407
    18.2990      4498
    18.3133      4540
    18.3276      4410
    18.3419      4587
    18.3562      4434
    18.3705      4585
    18.3848      4480
    18.3991      4412
    18.4134      4379
    18.4277      4505
    18.4420      4452
    18.4563      4460
    18.4706      4360
    18.4849      4512
    18.4992      4579
    18.5135      4526
    18.5278      4426
    18.5421      4524
    18.5564      4524
    18.5707      4379
    18.5850      4436
    18.5993      4500
    18.6136      4275
    18.6279      4498
    18.6422      4426
    18.6565      4499
    18.6708      4410
    18.6851      4410
    18.6994      4335
    18.7137      4343
    18.7280      4479
    18.7423      4551
    18.7566      4449
    18.7709      4451
    18.7852      4379
    18.7995      4265
    18.8138      4440
    18.8281      4436
    18.8424      4476
    18.8567      4372
    18.8710      4392
    18.8853      4525
    18.8996      4532
    18.9139      4532
    18.9282      4608
    18.9425      4476
    18.9568      4492
    18.9711      4398
    18.9854      4367
    18.9997      4507
    19.0140      4508
    19.0283      4586
    19.0426      4452
    19.0569      4430
    19.0712      4534
    19.0855      4564
    19.0998      4432
    19.1141      4506
    19.1284      4642
    19.1427      4546
    19.1570      4536
    19.1713      4605
    19.1856      4671
    19.1999      4602
    19.2142      4860
    19.2285      4609
    19.2428      4681
    19.2571      4841
    19.2714      4841
    19.2857      4877
    19.3000      4948
    19.3143      5126
    19.3286      5033
    19.3429      5155
    19.3572      5299
    19.3715      5381
    19.3858      5590
    19.4001      5797
    19.4144      6114
    19.4287      6309
    19.4430      6476
    19.4573      6629
    19.4716      7004
    19.4859      7365
    19.5002      7454
    19.5145      7796
    19.5288      7785
    19.5431      7705
    19.5574      7625
    19.5717      7266
    19.5860      6858
    19.6003      6169
    19.6146      5966
    19.6289      5966
    19.6432      5160
    19.6575      4867
    19.6718      4770
    19.6861      4588
    19.7004      4438
    19.7147      4366
    19.7290      4404
    19.7433      4474
    19.7576      4569
    19.7719      4403
    19.7862      4389
    19.8005      4275
    19.8148      4280
    19.8291      4246
    19.8434      4202
    19.8577      4395
    19.8720      4180
    19.8863      4361
    19.9006      4232
    19.9149      4202
    19.9292      4306
    19.9435      4204
    19.9578      4138
    19.9721      4306
    19.9864      4306
    20.0007      4217
    20.0150      4193
    20.0293      4199
    20.0436      4212
    20.0579      4166
    20.0722      4135
    20.0865      4051
    20.1008      4085
    20.1151      4104
    20.1294      4080
    20.1437      4231
    20.1580      4189
    20.1723      4178
    20.1866      4230
    20.2009      4194
    20.2152      4189
    20.2295      4177
    20.2438      4107
    20.2581      4103
    20.2724      4252
    20.2867      4154
    20.3010      4184
    20.3153      4175
    20.3296      4157
    20.3439      4157
    20.3582      4059
    20.3725      4032
    20.3868      4159
    20.4011      4162
    20.4154      4068
    20.4297      4032
    20.4440      4126
    20.4583      4162
    20.4726      4144
    20.4869      4095
    20.5012      4053
    20.5155      4041
    20.5298      4074
    20.5441      4102
    20.5584      4123
    20.5727      4043
    20.5870      4158
    20.6013      4141
    20.6156      4211
    20.6299      4098
    20.6442      4023
    20.6585      4177
    20.6728      4052
    20.6871      3999
    20.7014      3999
    20.7157      4126
    20.7300      4107
    20.7443      4042
    20.7586      3994
    20.7729      4126
    20.7872      4046
    20.8015      3957
    20.8158      4003
    20.8301      4087
    20.8444      4044
    20.8587      4090
    20.8730      3966
    20.8873      4040
    20.9016      4002
    20.9159      4060
    20.9302      4020
    20.9445      4124
    20.9588      4071
    20.9731      4050
    20.9874      3950
    21.0017      4034
    21.0160      3991
    21.0303      3969
    21.0446      4152
    21.0589      4152
    21.0732      4006
    21.0875      4094
    21.1018      3985
    21.1161      3908
    21.1304      3989
    21.1447      3818
    21.1590      4024
    21.1733      4010
    21.1876      3930
    21.2019      4037
    21.2162      4024
    21.2305      4032
    21.2448      4060
    21.2591      3972
    21.2734      4016
    21.2877      4099
    21.3020      3939
    21.3163      3942
    21.3306      4051
    21.3449      4003
    21.3592      4014
    21.3735      4072
    21.3878      4082
    21.4021      3980
    21.4164      3980
    21.4307      3925
    21.4450      3985
    21.4593      3901
    21.4736      3902
    21.4879      4054
    21.5022      4048
    21.5165      4066
    21.5308      4053
    21.5451      4008
    21.5594      3942
    21.5737      3989
    21.5880      3916
    21.6023      4064
    21.6166      3998
    21.6309      4111
    21.6452      4134
    21.6595      4090
    21.6738      4130
    21.6881      4001
    21.7024      4048
    21.7167      4020
    21.7310      3949
    21.7453      3946
    21.7596      3851
    21.7739      3851
    21.7882      3906
    21.8025      3888
    21.8168      3936
    21.8311      4000
    21.8454      3908
    21.8597      4000
    21.8740      3959
    21.8883      3998
    21.9026      3966
    21.9169      3791
    21.9312      3854
    21.9455      3869
    21.9598      3917
    21.9741      3925
    21.9884      3901
    22.0027      3878
    22.0170      3929
    22.0313      3818
    22.0456      3852
    22.0599      3999
    22.0742      3814
    22.0885      3976
    22.1028      3852
    22.1171      3848
    22.1314      3848
    22.1457      3812
    22.1600      3887
    22.1743      3816
    22.1886      3837
    22.2029      3779
    22.2172      3778
    22.2315      3823
    22.2458      3774
    22.2601      3794
    22.2744      3698
    22.2887      3801
    22.3030      3793
    22.3173      3749
    22.3316      3704
    22.3459      3827
    22.3602      3872
    22.3745      3697
    22.3888      3759
    22.4031      3672
    22.4174      3815
    22.4317      3820
    22.4460      3861
    22.4603      3870
    22.4746      3748
    22.4889      3748
    22.5032      3845
    22.5175      3812
    22.5318      3706
    22.5461      3799
    22.5604      3822
    22.5747      3748
    22.5890      3678
    22.6033      3737
    22.6176      3812
    22.6319      3657
    22.6462      3664
    22.6605      3651
    22.6748      3590
    22.6891      3670
    22.7034      3596
    22.7177      3749
    22.7320      3784
    22.7463      3752
    22.7606      3651
    22.7749      3763
    22.7892      3733
    22.8035      3676
    22.8178      3717
    22.8321      3681
    22.8464      3681
    22.8607      3806
    22.8750      3669
    22.8893      3563
    22.9036      3594
    22.9179      3669
    22.9322      3640
    22.9465      3669
    22.9608      3654
    22.9751      3589
    22.9894      3615
    23.0037      3688
    23.0180      3692
    23.0323      3662
    23.0466      3588
    23.0609      3686
    23.0752      3602
    23.0895      3734
    23.1038      3620
    23.1181      3542
    23.1324      3552
    23.1467      3660
    23.1610      3723
    23.1753      3670
    23.1896      3651
    23.2039      3651
    23.2182      3674
    23.2325      3627
    23.2468      3615
    23.2611      3682
    23.2754      3622
    23.2897      3622
    23.3040      3632
    23.3183      3541
    23.3326      3621
    23.3469      3537
    23.3612      3569
    23.3755      3596
    23.3898      3651
    23.4041      3603
    23.4184      3636
    23.4327      3590
    23.4470      3579
    23.4613      3657
    23.4756      3604
    23.4899      3558
    23.5042      3678
    23.5185      3503
    23.5328      3551
    23.5471      3703
    23.5614      3703
    23.5757      3585
    23.5900      3417
    23.6043      3562
    23.6186      3586
    23.6329      3686
    23.6472      3625
    23.6615      3547
    23.6758      3599
    23.6901      3632
    23.7044      3582
    23.7187      3557
    23.7330      3633
    23.7473      3498
    23.7616      3516
    23.7759      3595
    23.7902      3620
    23.8045      3482
    23.8188      3518
    23.8331      3502
    23.8474      3483
    23.8617      3511
    23.8760      3543
    23.8903      3604
    23.9046      3660
    23.9189      3660
    23.9332      3457
    23.9475      3578
    23.9618      3555
    23.9761      3436
    23.9904      3561
    24.0047      3630
    24.0190      3509
    24.0333      3687
    24.0476      3614
    24.0619      3716
    24.0762      3521
    24.0905      3531
    24.1048      3649
    24.1191      3545
    24.1334      3582
    24.1477      3527
    24.1620      3614
    24.1763      3720
    24.1906      3480
    24.2049      3595
    24.2192      3515
    24.2335      3442
    24.2478      3447
    24.2621      3594
    24.2764      3594
    24.2907      3529
    24.3050      3511
    24.3193      3436
    24.3336      3460
    24.3479      3491
    24.3622      3543
    24.3765      3529
    24.3908      3352
    24.4051      3347
    24.4194      3400
    24.4337      3374
    24.4480      3508
    24.4623      3495
    24.4766      3561
    24.4909      3567
    24.5052      3493
    24.5195      3422
    24.5338      3533
    24.5481      3547
    24.5624      3495
    24.5767      3412
    24.5910      3397
    24.6053      3467
    24.6196      3506
    24.6339      3506
    24.6482      3387
    24.6625      3349
    24.6768      3492
    24.6911      3406
    24.7054      3382
    24.7197      3374
    24.7340      3367
    24.7483      3318
    24.7626      3405
    24.7769      3347
    24.7912      3454
    24.8055      3427
    24.8198      3265
    24.8341      3471
    24.8484      3270
    24.8627      3319
    24.8770      3438
    24.8913      3374
    24.9056      3284
    24.9199      3429
    24.9342      3342
    24.9485      3449
    24.9628      3404
    24.9771      3376
    24.9914      3376
    25.0057      3403
    25.0200      3359
    25.0343      3364
    25.0486      3320
    25.0629      3398
    25.0772      3476
    25.0915      3309
    25.1058      3353
    25.1201      3398
    25.1344      3373
    25.1487      3311
    25.1630      3350
    25.1773      3261
    25.1916      3414
    25.2059      3373
    25.2202      3401
    25.2345      3452
    25.2488      3373
    25.2631      3380
    25.2774      3377
    25.2917      3438
    25.3060      3402
    25.3203      3417
    25.3346      3413
    25.3489      3413
    25.3632      3471
    25.3775      3440
    25.3918      3411
    25.4061      3420
    25.4204      3494
    25.4347      3425
    25.4490      3465
    25.4633      3549
    25.4776      3494
    25.4919      3601
    25.5062      3553
    25.5205      3713
    25.5348      3779
    25.5491      3747
    25.5634      3922
    25.5777      4014
    25.5920      3925
    25.6063      4084
    25.6206      4197
    25.6349      4304
    25.6492      4252
    25.6635      4431
    25.6778      4169
    25.6921      4035
    25.7064      4035
    25.7207      3975
    25.7350      3769
    25.7493      3719
    25.7636      3643
    25.7779      3555
    25.7922      3467
    25.8065      3462
    25.8208      3404
    25.8351      3404
    25.8494      3432
    25.8637      3350
    25.8780      3435
    25.8923      3446
    25.9066      3407
    25.9209      3338
    25.9352      3362
    25.9495      3427
    25.9638      3439
    25.9781      3376
    25.9924      3354
    26.0067      3328
    26.0210      3387
    26.0353      3283
    26.0496      3358
    26.0639      3358
    26.0782      3209
    26.0925      3387
    26.1068      3371
    26.1211      3212
    26.1354      3250
    26.1497      3311
    26.1640      3342
    26.1783      3298
    26.1926      3258
    26.2069      3302
    26.2212      3280
    26.2355      3351
    26.2498      3310
    26.2641      3216
    26.2784      3235
    26.2927      3217
    26.3070      3185
    26.3213      3200
    26.3356      3240
    26.3499      3229
    26.3642      3296
    26.3785      3275
    26.3928      3269
    26.4071      3260
    26.4214      3260
    26.4357      3188
    26.4500      3232
    26.4643      3284
    26.4786      3172
    26.4929      3228
    26.5072      3345
    26.5215      3339
    26.5358      3242
    26.5501      3245
    26.5644      3282
    26.5787      3365
    26.5930      3316
    26.6073      3226
    26.6216      3290
    26.6359      3324
    26.6502      3208
    26.6645      3268
    26.6788      3362
    26.6931      3213
    26.7074      3217
    26.7217      3217
    26.7360      3149
    26.7503      3094
    26.7646      3128
    26.7789      3128
    26.7932      3151
    26.8075      3080
    26.8218      3291
    26.8361      3247
    26.8504      3226
    26.8647      3240
    26.8790      3067
    26.8933      3171
    26.9076      3217
    26.9219      3147
    26.9362      3108
    26.9505      3132
    26.9648      3065
    26.9791      3153
    26.9934      3236
    27.0077      3096
    27.0220      3110
    27.0363      3105
    27.0506      3091
    27.0649      3005
    27.0792      3162
    27.0935      3130
    27.1078      3014
    27.1221      3028
    27.1364      3028
    27.1507      3052
    27.1650      3010
    27.1793      3105
    27.1936      3011
    27.2079      3131
    27.2222      3092
    27.2365      3152
    27.2508      3000
    27.2651      3074
    27.2794      3065
    27.2937      3206
    27.3080      3142
    27.3223      3014
    27.3366      3070
    27.3509      3095
    27.3652      3051
    27.3795      3062
    27.3938      3112
    27.4081      3133
    27.4224      3043
    27.4367      3086
    27.4510      3031
    27.4653      3073
    27.4796      3143
    27.4939      3143
    27.5082      3073
    27.5225      3111
    27.5368      2984
    27.5511      3035
    27.5654      3086
    27.5797      3039
    27.5940      2981
    27.6083      3035
    27.6226      3123
    27.6369      3055
    27.6512      3062
    27.6655      3070
    27.6798      3080
    27.6941      3036
    27.7084      2989
    27.7227      3021
    27.7370      3113
    27.7513      3065
    27.7656      3002
    27.7799      3077
    27.7942      2991
    27.8085      2992
    27.8228      2995
    27.8371      2965
    27.8514      2965
    27.8657      3043
    27.8800      2916
    27.8943      2988
    27.9086      2896
    27.9229      3062
    27.9372      3082
    27.9515      3044
    27.9658      2991
    27.9801      3015
    27.9944      3116
    28.0087      2988
    28.0230      2981
    28.0373      2984
    28.0516      2963
    28.0659      2956
    28.0802      3040
    28.0945      2942
    28.1088      3125
    28.1231      3035
    28.1374      3047
    28.1517      2962
    28.1660      2873
    28.1803      2952
    28.1946      2987
    28.2089      2987
    28.2232      2984
    28.2375      2934
    28.2518      2987
    28.2661      2986
    28.2804      2939
    28.2947      3042
    28.3090      2930
    28.3233      2994
    28.3376      2821
    28.3519      3007
    28.3662      2947
    28.3805      2914
    28.3948      2973
    28.4091      2896
    28.4234      3014
    28.4377      2961
    28.4520      2943
    28.4663      3036
    28.4806      3033
    28.4949      2993
    28.5092      3019
    28.5235      3004
    28.5378      3004
    28.5521      3008
    28.5664      3008
    28.5807      2869
    28.5950      2887
    28.6093      2885
    28.6236      2948
    28.6379      2910
    28.6522      2952
    28.6665      2865
    28.6808      2859
    28.6951      2986
    28.7094      2843
    28.7237      2913
    28.7380      2926
    28.7523      2903
    28.7666      2892
    28.7809      2917
    28.7952      2939
    28.8095      2864
    28.8238      2939
    28.8381      2943
    28.8524      2920
    28.8667      2900
    28.8810      2820
    28.8953      2857
    28.9096      2840
    28.9239      2840
    28.9382      2907
    28.9525      2998
    28.9668      2797
    28.9811      2912
    28.9954      2899
    29.0097      2945
    29.0240      2766
    29.0383      2755
    29.0526      2905
    29.0669      2907
    29.0812      2888
    29.0955      2838
    29.1098      2809
    29.1241      2833
    29.1384      2845
    29.1527      2838
    29.1670      2904
    29.1813      2939
    29.1956      2935
    29.2099      2875
    29.2242      2964
    29.2385      2945
    29.2528      2987
    29.2671      2976
    29.2814      2976
    29.2957      3051
    29.3100      3113
    29.3243      3105
    29.3386      3288
    29.3529      3250
    29.3672      3439
    29.3815      3421
    29.3958      3581
    29.4101      3598
    29.4244      3619
    29.4387      3663
    29.4530      3667
    29.4673      3587
    29.4816      3581
    29.4959      3534
    29.5102      3409
    29.5245      3305
    29.5388      3258
    29.5531      3221
    29.5674      3119
    29.5817      3056
    29.5960      2998
    29.6103      2977
    29.6246      2953
    29.6389      2953
    29.6532      2868
    29.6675      2769
    29.6818      2790
    29.6961      2840
    29.7104      2849
    29.7247      2825
    29.7390      2823
    29.7533      2853
    29.7676      2731
    29.7819      2800
    29.7962      2770
    29.8105      2835
    29.8248      2836
    29.8391      2722
    29.8534      2725
    29.8677      2747
    29.8820      2908
    29.8963      2763
    29.9106      2835
    29.9249      2920
    29.9392      2814
    29.9535      2769
    29.9678      2714
    29.9821      2735
    29.9964      2735
    30.0107      2684
    30.0250      2739
    30.0393      2843
    30.0536      2869
    30.0679      2911
    30.0822      2851
    30.0965      2825
    30.1108      2690
    30.1251      2778
    30.1394      2724
    30.1537      2673
    30.1680      2792
    30.1823      2730
    30.1966      2728
    30.2109      2786
    30.2252      2700
    30.2395      2677
    30.2538      2683
    30.2681      2743
    30.2824      2801
    30.2967      2763
    30.3110      2725
    30.3253      2821
    30.3396      2857
    30.3539      2857
    30.3682      2806
    30.3825      2754
    30.3968      2767
    30.4111      2755
    30.4254      2683
    30.4397      2806
    30.4540      2788
    30.4683      2814
    30.4826      2737
    30.4969      2702
    30.5112      2727
    30.5255      2755
    30.5398      2676
    30.5541      2745
    30.5684      2764
    30.5827      2866
    30.5970      2767
    30.6113      2787
    30.6256      2767
    30.6399      2812
    30.6542      2871
    30.6685      2767
    30.6828      2792
    30.6971      2870
    30.7114      2870
    30.7257      2885
    30.7400      2789
    30.7543      2872
    30.7686      2873
    30.7829      2808
    30.7972      2973
    30.8115      2803
    30.8258      2727
    30.8401      2814
    30.8544      2787
    30.8687      2818
    30.8830      2763
    30.8973      2746
    30.9116      2731
    30.9259      2705
    30.9402      2759
    30.9545      2725
    30.9688      2809
    30.9831      2776
    30.9974      2747
    31.0117      2714
    31.0260      2751
    31.0403      2640
    31.0546      2734
    31.0689      2734
    31.0832      2702
    31.0975      2665
    31.1118      2586
    31.1261      2683
    31.1404      2699
    31.1547      2659
    31.1690      2605
    31.1833      2701
    31.1976      2585
    31.2119      2661
    31.2262      2630
    31.2405      2735
    31.2548      2675
    31.2691      2588
    31.2834      2697
    31.2977      2707
    31.3120      2738
    31.3263      2769
    31.3406      2637
    31.3549      2749
    31.3692      2661
    31.3835      2605
    31.3978      2655
    31.4121      2651
    31.4264      2651
    31.4407      2686
    31.4550      2669
    31.4693      2657
    31.4836      2630
    31.4979      2593
    31.5122      2692
    31.5265      2595
    31.5408      2632
    31.5551      2742
    31.5694      2680
    31.5837      2620
    31.5980      2617
    31.6123      2622
    31.6266      2655
    31.6409      2651
    31.6552      2603
    31.6695      2599
    31.6838      2649
    31.6981      2610
    31.7124      2682
    31.7267      2576
    31.7410      2617
    31.7553      2611
    31.7696      2682
    31.7839      2682
    31.7982      2616
    31.8125      2698
    31.8268      2680
    31.8411      2567
    31.8554      2650
    31.8697      2572
    31.8840      2604
    31.8983      2665
    31.9126      2583
    31.9269      2633
    31.9412      2578
    31.9555      2663
    31.9698      2643
    31.9841      2613
    31.9984      2684
    32.0127      2623
    32.0270      2543
    32.0413      2631
    32.0556      2640
    32.0699      2658
    32.0842      2683
    32.0985      2661
    32.1128      2553
    32.1271      2629
    32.1414      2629
    32.1557      2575
    32.1700      2616
    32.1843      2618
    32.1986      2576
    32.2129      2452
    32.2272      2655
    32.2415      2492
    32.2558      2619
    32.2701      2567
    32.2844      2597
    32.2987      2513
    32.3130      2595
    32.3273      2515
    32.3416      2652
    32.3559      2611
    32.3702      2701
    32.3845      2425
    32.3988      2599
    32.4131      2512
    32.4274      2565
    32.4417      2701
    32.4560      2649
    32.4703      2635
    32.4846      2649
    32.4989      2649
    32.5132      2654
    32.5275      2636
    32.5418      2543
    32.5561      2562
    32.5704      2512
    32.5847      2558
    32.5990      2643
    32.6133      2628
    32.6276      2595
    32.6419      2640
    32.6562      2523
    32.6705      2546
    32.6848      2540
    32.6991      2529
    32.7134      2603
    32.7277      2667
    32.7420      2562
    32.7563      2599
    32.7706      2578
    32.7849      2493
    32.7992      2456
    32.8135      2589
    32.8278      2607
    32.8421      2579
    32.8564      2579
    32.8707      2559
    32.8850      2558
    32.8993      2585
    32.9136      2502
    32.9279      2549
    32.9422      2571
    32.9565      2553
    32.9708      2552
    32.9851      2428
    32.9994      2528
    33.0137      2509
    33.0280      2551
    33.0423      2611
    33.0566      2495
    33.0709      2520
    33.0852      2437
    33.0995      2517
    33.1138      2503
    33.1281      2547
    33.1424      2495
    33.1567      2568
    33.1710      2543
    33.1853      2459
    33.1996      2596
    33.2139      2596
    33.2282      2476
    33.2425      2522
    33.2568      2479
    33.2711      2498
    33.2854      2574
    33.2997      2570
    33.3140      2576
    33.3283      2488
    33.3426      2479
    33.3569      2601
    33.3712      2526
    33.3855      2544
    33.3998      2474
    33.4141      2555
    33.4284      2583
    33.4427      2529
    33.4570      2545
    33.4713      2599
    33.4856      2635
    33.4999      2564
    33.5142      2576
    33.5285      2597
    33.5428      2643
    33.5571      2539
    33.5714      2539
    33.5857      2602
    33.6000      2602
    33.6143      2683
    33.6286      2703
    33.6429      2757
    33.6572      2728
    33.6715      2729
    33.6858      2609
    33.7001      2745
    33.7144      2852
    33.7287      2901
    33.7430      2796
    33.7573      2895
    33.7716      2885
    33.7859      2845
    33.8002      2839
    33.8145      2866
    33.8288      3061
    33.8431      3075
    33.8574      2929
    33.8717      2892
    33.8860      3002
    33.9003      3054
    33.9146      3150
    33.9289      3150
    33.9432      3350
    33.9575      3512
    33.9718      3660
    33.9861      3771
    34.0004      3864
    34.0147      4201
    34.0290      4378
    34.0433      4734
    34.0576      5090
    34.0719      5416
    34.0862      5716
    34.1005      6037
    34.1148      6137
    34.1291      6210
    34.1434      6098
    34.1577      5840
    34.1720      5356
    34.1863      5004
    34.2006      4791
    34.2149      4554
    34.2292      4197
    34.2435      3926
    34.2578      3555
    34.2721      3280
    34.2864      3280
    34.3007      2938
    34.3150      2794
    34.3293      2890
    34.3436      2677
    34.3579      2656
    34.3722      2711
    34.3865      2721
    34.4008      2585
    34.4151      2588
    34.4294      2600
    34.4437      2560
    34.4580      2522
    34.4723      2486
    34.4866      2489
    34.5009      2556
    34.5152      2610
    34.5295      2558
    34.5438      2586
    34.5581      2553
    34.5724      2478
    34.5867      2608
    34.6010      2597
    34.6153      2526
    34.6296      2524
    34.6439      2524
    34.6582      2477
    34.6725      2472
    34.6868      2504
    34.7011      2624
    34.7154      2614
    34.7297      2485
    34.7440      2639
    34.7583      2583
    34.7726      2542
    34.7869      2542
    34.8012      2503
    34.8155      2619
    34.8298      2639
    34.8441      2684
    34.8584      2680
    34.8727      2689
    34.8870      2783
    34.9013      2746
    34.9156      2759
    34.9299      2883
    34.9442      2895
    34.9585      2837
    34.9728      2842
    34.9871      2872
    35.0014      2872
    35.0157      2879
    35.0300      2890
    35.0443      3042
    35.0586      3062
    35.0729      3222
    35.0872      3317
    35.1015      3361
    35.1158      3545
    35.1301      3647
    35.1444      3935
    35.1587      3982
    35.1730      4573
    35.1873      4868
    35.2016      5182
    35.2159      5357
    35.2302      5576
    35.2445      5456
    35.2588      5117
    35.2731      4781
    35.2874      4543
    35.3017      4263
    35.3160      4191
    35.3303      4019
    35.3446      3781
    35.3589      3781
    35.3732      3218
    35.3875      3046
    35.4018      2846
    35.4161      2968
    35.4304      2950
    35.4447      2799
    35.4590      2710
    35.4733      2778
    35.4876      2793
    35.5019      2721
    35.5162      2702
    35.5305      2838
    35.5448      2846
    35.5591      2788
    35.5734      2894
    35.5877      2928
    35.6020      2839
    35.6163      3059
    35.6306      2916
    35.6449      3133
    35.6592      2998
    35.6735      3011
    35.6878      3186
    35.7021      3193
    35.7164      3193
    35.7307      3297
    35.7450      3374
    35.7593      3568
    35.7736      3433
    35.7879      3703
    35.8022      3878
    35.8165      4032
    35.8308      4262
    35.8451      4705
    35.8594      4791
    35.8737      5150
    35.8880      5559
    35.9023      6211
    35.9166      6413
    35.9309      7298
    35.9452      8025
    35.9595      8972
    35.9738     10052
    35.9881     11147
    36.0024     12120
    36.0167     13284
    36.0310     13994
    36.0453     13881
    36.0596     13677
    36.0739     13677
    36.0882     12143
    36.1025     11391
    36.1168     10555
    36.1311      9637
    36.1454      9044
    36.1597      8140
    36.1740      7242
    36.1883      6283
    36.2026      5509
    36.2169      4861
    36.2312      4456
    36.2455      4058
    36.2598      3916
    36.2741      3689
    36.2884      3544
    36.3027      3453
    36.3170      3328
    36.3313      3354
    36.3456      3144
    36.3599      3033
    36.3742      2996
    36.3885      2917
    36.4028      3026
    36.4171      2785
    36.4314      2785
    36.4457      2762
    36.4600      2802
    36.4743      2723
    36.4886      2757
    36.5029      2718
    36.5172      2714
    36.5315      2758
    36.5458      2675
    36.5601      2703
    36.5744      2703
    36.5887      2703
    36.6030      2638
    36.6173      2723
    36.6316      2651
    36.6459      2633
    36.6602      2649
    36.6745      2662
    36.6888      2725
    36.7031      2666
    36.7174      2720
    36.7317      2817
    36.7460      2776
    36.7603      2777
    36.7746      2956
    36.7889      2956
    36.8032      2846
    36.8175      3043
    36.8318      3233
    36.8461      3393
    36.8604      3310
    36.8747      3565
    36.8890      3753
    36.9033      3789
    36.9176      3894
    36.9319      3906
    36.9462      4026
    36.9605      3987
    36.9748      3884
    36.9891      3597
    37.0034      3481
    37.0177      3485
    37.0320      3327
    37.0463      3206
    37.0606      2953
    37.0749      3081
    37.0892      2752
    37.1035      2619
    37.1178      2677
    37.1321      2593
    37.1464      2593
    37.1607      2606
    37.1750      2587
    37.1893      2541
    37.2036      2495
    37.2179      2493
    37.2322      2413
    37.2465      2550
    37.2608      2569
    37.2751      2540
    37.2894      2517
    37.3037      2561
    37.3180      2673
    37.3323      2650
    37.3466      2589
    37.3609      2650
    37.3752      2559
    37.3895      2584
    37.4038      2616
    37.4181      2581
    37.4324      2549
    37.4467      2521
    37.4610      2512
    37.4753      2470
    37.4896      2532
    37.5039      2532
    37.5182      2488
    37.5325      2382
    37.5468      2431
    37.5611      2537
    37.5754      2465
    37.5897      2387
    37.6040      2532
    37.6183      2458
    37.6326      2534
    37.6469      2561
    37.6612      2474
    37.6755      2581
    37.6898      2576
    37.7041      2605
    37.7184      2647
    37.7327      2806
    37.7470      2645
    37.7613      2958
    37.7756      2881
    37.7899      3031
    37.8042      3080
    37.8185      3213
    37.8328      3256
    37.8471      3378
    37.8614      3378
    37.8757      3442
    37.8900      3476
    37.9043      3332
    37.9186      3311
    37.9329      3355
    37.9472      3301
    37.9615      3212
    37.9758      3135
    37.9901      3106
    38.0044      3004
    38.0187      2924
    38.0330      2869
    38.0473      2752
    38.0616      2717
    38.0759      2739
    38.0902      2732
    38.1045      2823
    38.1188      2684
    38.1331      2683
    38.1474      2617
    38.1617      2673
    38.1760      2524
    38.1903      2561
    38.2046      2560
    38.2189      2560
    38.2332      2604
    38.2475      2615
    38.2618      2577
    38.2761      2507
    38.2904      2533
    38.3047      2697
    38.3190      2638
    38.3333      2652
    38.3476      2588
    38.3619      2559
    38.3762      2664
    38.3905      2629
    38.4048      2628
    38.4191      2605
    38.4334      2642
    38.4477      2670
    38.4620      2688
    38.4763      2652
    38.4906      2538
    38.5049      2630
    38.5192      2637
    38.5335      2670
    38.5478      2680
    38.5621      2592
    38.5764      2592
    38.5907      2710
    38.6050      2595
    38.6193      2633
    38.6336      2646
    38.6479      2717
    38.6622      2596
    38.6765      2578
    38.6908      2776
    38.7051      2694
    38.7194      2784
    38.7337      2692
    38.7480      2800
    38.7623      2839
    38.7766      2775
    38.7909      2885
    38.8052      2961
    38.8195      2989
    38.8338      2957
    38.8481      3101
    38.8624      3222
    38.8767      3174
    38.8910      3292
    38.9053      3266
    38.9196      3498
    38.9339      3498
    38.9482      3721
    38.9625      3806
    38.9768      4033
    38.9911      4244
    39.0054      4501
    39.0197      4733
    39.0340      4974
    39.0483      5555
    39.0626      5904
    39.0769      6403
    39.0912      7068
    39.1055      7979
    39.1198      8715
    39.1341      9558
    39.1484     11352
    39.1627     12905
    39.1770     14451
    39.1913     16750
    39.2056     19210
    39.2199     21108
    39.2342     23362
    39.2485     24668
    39.2628     24720
    39.2771     24460
    39.2914     24460
    39.3057     21885
    39.3200     20205
    39.3343     19108
    39.3486     18280
    39.3629     17792
    39.3772     16998
    39.3915     15759
    39.4058     15269
    39.4201     14788
    39.4344     14332
    39.4487     14609
    39.4630     15930
    39.4773     16926
    39.4916     18331
    39.5059     20095
    39.5202     21682
    39.5345     23136
    39.5488     23940
    39.5631     24385
    39.5774     24924
    39.5917     25075
    39.6060     24279
    39.6203     23979
    39.6346     23120
    39.6489     23120
    39.6632     19782
    39.6775     18213
    39.6918     16437
    39.7061     14626
    39.7204     13263
    39.7347     11568
    39.7490     10157
    39.7633      8944
    39.7776      7875
    39.7919      6878
    39.8062      6083
    39.8205      5368
    39.8348      4836
    39.8491      4329
    39.8634      4012
    39.8777      3856
    39.8920      3547
    39.9063      3481
    39.9206      3268
    39.9349      3199
    39.9492      3195
    39.9635      3124
    39.9778      2978
    39.9921      2953
    40.0064      2953
    40.0207      2859
    40.0350      2791
    40.0493      2799
    40.0636      2858
    40.0779      2837
    40.0922      2778
    40.1065      2865
    40.1208      2898
    40.1351      2766
    40.1494      2828
    40.1637      2835
    40.1780      2921
    40.1923      2923
    40.2066      2985
    40.2209      2989
    40.2352      3052
    40.2495      3205
    40.2638      3201
    40.2781      3249
    40.2924      3340
    40.3067      3278
    40.3210      3471
    40.3353      3311
    40.3496      3334
    40.3639      3334
    40.3782      3209
    40.3925      3138
    40.4068      3078
    40.4211      2890
    40.4354      3076
    40.4497      2840
    40.4640      2785
    40.4783      2787
    40.4926      2757
    40.5069      2737
    40.5212      2599
    40.5355      2570
    40.5498      2611
    40.5641      2449
    40.5784      2585
    40.5927      2527
    40.6070      2388
    40.6213      2453
    40.6356      2524
    40.6499      2476
    40.6642      2431
    40.6785      2506
    40.6928      2443
    40.7071      2395
    40.7214      2395
    40.7357      2472
    40.7500      2401
    40.7643      2251
    40.7786      2369
    40.7929      2371
    40.8072      2314
    40.8215      2379
    40.8358      2412
    40.8501      2394
    40.8644      2354
    40.8787      2291
    40.8930      2358
    40.9073      2431
    40.9216      2370
    40.9359      2273
    40.9502      2312
    40.9645      2373
    40.9788      2396
    40.9931      2264
    41.0074      2407
    41.0217      2383
    41.0360      2377
    41.0503      2346
    41.0646      2346
    41.0789      2346
    41.0932      2362
    41.1075      2362
    41.1218      2403
    41.1361      2383
    41.1504      2364
    41.1647      2471
    41.1790      2292
    41.1933      2362
    41.2076      2428
    41.2219      2484
    41.2362      2432
    41.2505      2484
    41.2648      2480
    41.2791      2465
    41.2934      2479
    41.3077      2477
    41.3220      2563
    41.3363      2485
    41.3506      2509
    41.3649      2636
    41.3792      2629
    41.3935      2734
    41.4078      2796
    41.4221      2783
    41.4364      2783
    41.4507      2926
    41.4650      3108
    41.4793      2942
    41.4936      3134
    41.5079      3269
    41.5222      3277
    41.5365      3377
    41.5508      3451
    41.5651      3562
    41.5794      3725
    41.5937      3736
    41.6080      4033
    41.6223      4122
    41.6366      4202
    41.6509      4482
    41.6652      4667
    41.6795      4909
    41.6938      5463
    41.7081      5825
    41.7224      6302
    41.7367      6893
    41.7510      7651
    41.7653      8851
    41.7796      9594
    41.7939      9594
    41.8082     11608
    41.8225     12731
    41.8368     13074
    41.8511     13300
    41.8654     13099
    41.8797     12402
    41.8940     12156
    41.9083     11400
    41.9226     11143
    41.9369     11292
    41.9512     10932
    41.9655     10597
    41.9798     10783
    41.9941     10707
    42.0084     10662
    42.0227     10868
    42.0370     11273
    42.0513     11534
    42.0656     11835
    42.0799     11879
    42.0942     11702
    42.1085     11163
    42.1228     10568
    42.1371      9823
    42.1514      9823
    42.1657      8488
    42.1800      8027
    42.1943      7582
    42.2086      6871
    42.2229      6354
    42.2372      5716
    42.2515      5074
    42.2658      4550
    42.2801      4110
    42.2944      3694
    42.3087      3460
    42.3230      3312
    42.3373      3001
    42.3516      3013
    42.3659      2871
    42.3802      2768
    42.3945      2714
    42.4088      2676
    42.4231      2720
    42.4374      2729
    42.4517      2653
    42.4660      2634
    42.4803      2584
    42.4946      2622
    42.5089      2622
    42.5232      2543
    42.5375      2481
    42.5518      2548
    42.5661      2508
    42.5804      2505
    42.5947      2427
    42.6090      2484
    42.6233      2363
    42.6376      2374
    42.6519      2396
    42.6662      2380
    42.6805      2434
    42.6948      2409
    42.7091      2401
    42.7234      2353
    42.7377      2379
    42.7520      2383
    42.7663      2292
    42.7806      2363
    42.7949      2277
    42.8092      2177
    42.8235      2275
    42.8378      2326
    42.8521      2424
    42.8664      2424
    42.8807      2313
    42.8950      2319
    42.9093      2256
    42.9236      2301
    42.9379      2291
    42.9522      2345
    42.9665      2303
    42.9808      2326
    42.9951      2263
    43.0094      2272
    43.0237      2177
    43.0380      2286
    43.0523      2240
    43.0666      2268
    43.0809      2318
    43.0952      2286
    43.1095      2239
    43.1238      2217
    43.1381      2341
    43.1524      2328
    43.1667      2335
    43.1810      2386
    43.1953      2302
    43.2096      2354
    43.2239      2354
    43.2382      2418
    43.2525      2484
    43.2668      2527
    43.2811      2454
    43.2954      2544
    43.3097      2600
    43.3240      2820
    43.3383      2914
    43.3526      3013
    43.3669      3259
    43.3812      3324
    43.3955      3686
    43.4098      3922
    43.4241      3937
    43.4384      4191
    43.4527      4059
    43.4670      3840
    43.4813      3768
    43.4956      3677
    43.5099      3394
    43.5242      3304
    43.5385      3412
    43.5528      3249
    43.5671      3327
    43.5814      3327
    43.5957      2962
    43.6100      2811
    43.6243      2575
    43.6386      2527
    43.6529      2552
    43.6672      2399
    43.6815      2419
    43.6958      2353
    43.7101      2331
    43.7244      2380
    43.7387      2370
    43.7530      2311
    43.7673      2369
    43.7816      2344
    43.7959      2372
    43.8102      2411
    43.8245      2410
    43.8388      2491
    43.8531      2538
    43.8674      2561
    43.8817      2652
    43.8960      2605
    43.9103      2698
    43.9246      2754
    43.9389      2754
    43.9532      2808
    43.9675      2951
    43.9818      2974
    43.9961      3087
    44.0104      3161
    44.0247      3291
    44.0390      3281
    44.0533      3311
    44.0676      3391
    44.0819      3303
    44.0962      3241
    44.1105      3190
    44.1248      3143
    44.1391      3147
    44.1534      3134
    44.1677      2943
    44.1820      2872
    44.1963      2849
    44.2106      2767
    44.2249      2696
    44.2392      2589
    44.2535      2543
    44.2678      2433
    44.2821      2438
    44.2964      2438
    44.3107      2286
    44.3250      2323
    44.3393      2241
    44.3536      2274
    44.3679      2254
    44.3822      2233
    44.3965      2173
    44.4108      2245
    44.4251      2021
    44.4394      2208
    44.4537      2126
    44.4680      2089
    44.4823      2146
    44.4966      2130
    44.5109      2140
    44.5252      2062
    44.5395      2067
    44.5538      2108
    44.5681      2034
    44.5824      2044
    44.5967      2093
    44.6110      2090
    44.6253      2070
    44.6396      1993
    44.6539      1993
    44.6682      2034
    44.6825      1994
    44.6968      1961
    44.7111      1912
    44.7254      2015
    44.7397      1945
    44.7540      1942
    44.7683      1937
    44.7826      1977
    44.7969      1965
    44.8112      1943
    44.8255      1975
    44.8398      1908
    44.8541      2009
    44.8684      2037
    44.8827      1999
    44.8970      1961
    44.9113      1960
    44.9256      2017
    44.9399      1938
    44.9542      1990
    44.9685      1952
    44.9828      1996
    44.9971      2054
    45.0114      2054
    45.0257      2006
    45.0400      2016
    45.0543      1961
    45.0686      1971
    45.0829      1993
    45.0972      2034
    45.1115      1950
    45.1258      1917
    45.1401      1985
    45.1544      2030
    45.1687      2056
    45.1830      1987
    45.1973      2050
    45.2116      2100
    45.2259      2094
    45.2402      2041
    45.2545      2185
    45.2688      2221
    45.2831      2246
    45.2974      2232
    45.3117      2291
    45.3260      2395
    45.3403      2345
    45.3546      2476
    45.3689      2476
    45.3832      2310
    45.3975      2280
    45.4118      2193
    45.4261      2235
    45.4404      2115
    45.4547      2272
    45.4690      2137
    45.4833      2066
    45.4976      2085
    45.5119      2047
    45.5262      1915
    45.5405      2013
    45.5548      1948
    45.5691      1850
    45.5834      1946
    45.5977      1927
    45.6120      1987
    45.6263      2038
    45.6406      1918
    45.6549      1949
    45.6692      1955
    45.6835      1860
    45.6978      1914
    45.7121      1979
    45.7264      1979
    45.7407      1984
    45.7550      2111
    45.7693      2025
    45.7836      2112
    45.7979      2140
    45.8122      2123
    45.8265      2104
    45.8408      2031
    45.8551      2101
    45.8694      2119
    45.8837      2090
    45.8980      2103
    45.9123      2045
    45.9266      1978
    45.9409      2062
    45.9552      2008
    45.9695      1986
    45.9838      2002
    45.9981      2057
    46.0124      1977
    46.0267      1882
    46.0410      1968
    46.0553      1922
    46.0696      1932
    46.0839      1932
    46.0982      1947
    46.1125      1929
    46.1268      1878
    46.1411      2012
    46.1554      1969
    46.1697      1916
    46.1840      1914
    46.1983      1888
    46.2126      1927
    46.2269      1847
    46.2412      1906
    46.2555      1969
    46.2698      1956
    46.2841      1917
    46.2984      1920
    46.3127      2003
    46.3270      1980
    46.3413      1885
    46.3556      1921
    46.3699      1872
    46.3842      1908
    46.3985      1883
    46.4128      1823
    46.4271      1866
    46.4414      1866
    46.4557      1812
    46.4700      1904
    46.4843      1827
    46.4986      1794
    46.5129      1850
    46.5272      1818
    46.5415      1831
    46.5558      1868
    46.5701      1918
    46.5844      1925
    46.5987      1868
    46.6130      1923
    46.6273      1886
    46.6416      1874
    46.6559      1949
    46.6702      1884
    46.6845      1894
    46.6988      1929
    46.7131      1952
    46.7274      1931
    46.7417      1883
    46.7560      1951
    46.7703      1988
    46.7846      1981
    46.7989      1981
    46.8132      1947
    46.8275      2011
    46.8418      2012
    46.8561      2018
    46.8704      1965
    46.8847      2083
    46.8990      2082
    46.9133      1947
    46.9276      1977
    46.9419      2017
    46.9562      1969
    46.9705      1985
    46.9848      1943
    46.9991      2015
    47.0134      1920
    47.0277      1991
    47.0420      1982
    47.0563      1922
    47.0706      1937
    47.0849      1971
    47.0992      1875
    47.1135      1952
    47.1278      1886
    47.1421      2007
    47.1564      2007
    47.1707      1867
    47.1850      1897
    47.1993      1881
    47.2136      1845
    47.2279      1875
    47.2422      1929
    47.2565      1866
    47.2708      1807
    47.2851      1858
    47.2994      1848
    47.3137      1799
    47.3280      1852
    47.3423      1870
    47.3566      1872
    47.3709      1949
    47.3852      1867
    47.3995      1843
    47.4138      1826
    47.4281      1906
    47.4424      1913
    47.4567      1769
    47.4710      1927
    47.4853      1882
    47.4996      1856
    47.5139      1856
    47.5282      1874
    47.5425      1904
    47.5568      1791
    47.5711      1788
    47.5854      1814
    47.5997      1788
    47.6140      1806
    47.6283      1812
    47.6426      1794
    47.6569      1735
    47.6712      1810
    47.6855      1951
    47.6998      1809
    47.7141      1770
    47.7284      1828
    47.7427      1808
    47.7570      1771
    47.7713      1741
    47.7856      1770
    47.7999      1740
    47.8142      1725
    47.8285      1787
    47.8428      1753
    47.8571      1809
    47.8714      1809
    47.8857      1767
    47.9000      1736
    47.9143      1727
    47.9286      1765
    47.9429      1653
    47.9572      1784
    47.9715      1744
    47.9858      1780
    48.0001      1763
    48.0144      1759
    48.0287      1846
    48.0430      1793
    48.0573      1879
    48.0716      1737
    48.0859      1722
    48.1002      1819
    48.1145      1799
    48.1288      1752
    48.1431      1804
    48.1574      1858
    48.1717      1796
    48.1860      1734
    48.2003      1664
    48.2146      1738
    48.2289      1738
    48.2432      1759
    48.2575      1737
    48.2718      1778
    48.2861      1728
    48.3004      1813
    48.3147      1798
    48.3290      1829
    48.3433      1737
    48.3576      1764
    48.3719      1708
    48.3862      1646
    48.4005      1751
    48.4148      1825
    48.4291      1800
    48.4434      1774
    48.4577      1779
    48.4720      1804
    48.4863      1800
    48.5006      1821
    48.5149      1800
    48.5292      1834
    48.5435      1779
    48.5578      1695
    48.5721      1796
    48.5864      1796
    48.6007      1824
    48.6150      1786
    48.6293      1765
    48.6436      1779
    48.6579      1845
    48.6722      1890
    48.6865      1841
    48.7008      1849
    48.7151      1862
    48.7294      1888
    48.7437      1895
    48.7580      1962
    48.7723      2037
    48.7866      2078
    48.8009      2143
    48.8152      2279
    48.8295      2216
    48.8438      2338
    48.8581      2570
    48.8724      2592
    48.8867      2872
    48.9010      3031
    48.9153      3070
    48.9296      3463
    48.9439      3463
    48.9582      3571
    48.9725      3663
    48.9868      3560
    49.0011      3465
    49.0154      3475
    49.0297      3350
    49.0440      3249
    49.0583      3104
    49.0726      2999
    49.0869      2917
    49.1012      2841
    49.1155      2767
    49.1298      2669
    49.1441      2495
    49.1584      2477
    49.1727      2268
    49.1870      2201
    49.2013      2117
    49.2156      2053
    49.2299      1992
    49.2442      1888
    49.2585      1858
    49.2728      1823
    49.2871      1920
    49.3014      1920
    49.3157      1836
    49.3300      1758
    49.3443      1719
    49.3586      1749
    49.3729      1835
    49.3872      1781
    49.4015      1808
    49.4158      1721
    49.4301      1838
    49.4444      1827
    49.4587      1712
    49.4730      1717
    49.4873      1747
    49.5016      1767
    49.5159      1751
    49.5302      1767
    49.5445      1769
    49.5588      1762
    49.5731      1717
    49.5874      1729
    49.6017      1758
    49.6160      1781
    49.6303      1749
    49.6446      1760
    49.6589      1760
    49.6732      1721
    49.6875      1736
    49.7018      1769
    49.7161      1656
    49.7304      1793
    49.7447      1728
    49.7590      1726
    49.7733      1725
    49.7876      1644
    49.8019      1675
    49.8162      1668
    49.8305      1789
    49.8448      1696
    49.8591      1719
    49.8734      1689
    49.8877      1714
    49.9020      1728
    49.9163      1823
    49.9306      1697
    49.9449      1833
    49.9592      1770
    49.9735      1704
    49.9878      1755
    50.0021      1862
    50.0164      1862
    50.0307      1734
    50.0450      1780
    50.0593      1739
    50.0736      1807
    50.0879      1791
    50.1022      1830
    50.1165      1777
    50.1308      1849
    50.1451      1813
    50.1594      1737
    50.1737      1790
    50.1880      1771
    50.2023      1736
    50.2166      1805
    50.2309      1695
    50.2452      1721
    50.2595      1803
    50.2738      1768
    50.2881      1685
    50.3024      1665
    50.3167      1682
    50.3310      1788
    50.3453      1741
    50.3596      1637
    50.3739      1637
    50.3882      1655
    50.4025      1693
    50.4168      1660
    50.4311      1635
    50.4454      1715
    50.4597      1706
    50.4740      1671
    50.4883      1623
    50.5026      1734
    50.5169      1669
    50.5312      1686
    50.5455      1737
    50.5598      1668
    50.5741      1596
    50.5884      1710
    50.6027      1711
    50.6170      1661
    50.6313      1658
    50.6456      1588
    50.6599      1701
    50.6742      1673
    50.6885      1702
    50.7028      1693
    50.7171      1701
    50.7314      1701
    50.7457      1554
    50.7600      1686
    50.7743      1668
    50.7886      1603
    50.8029      1657
    50.8172      1635
    50.8315      1641
    50.8458      1658
    50.8601      1612
    50.8744      1634
    50.8887      1621
    50.9030      1579
    50.9173      1623
    50.9316      1655
    50.9459      1742
    50.9602      1646
    50.9745      1644
    50.9888      1735
    51.0031      1734
    51.0174      1644
    51.0317      1583
    51.0460      1681
    51.0603      1726
    51.0746      1634
    51.0889      1634
    51.1032      1700
    51.1175      1615
    51.1318      1656
    51.1461      1663
    51.1604      1722
    51.1747      1633
    51.1890      1689
    51.2033      1664
    51.2176      1646
    51.2319      1647
    51.2462      1629
    51.2605      1572
    51.2748      1602
    51.2891      1606
    51.3034      1595
    51.3177      1688
    51.3320      1676
    51.3463      1723
    51.3606      1741
    51.3749      1675
    51.3892      1651
    51.4035      1692
    51.4178      1677
    51.4321      1714
    51.4464      1714
    51.4607      1616
    51.4750      1588
    51.4893      1589
    51.5036      1620
    51.5179      1721
    51.5322      1649
    51.5465      1630
    51.5608      1616
    51.5751      1667
    51.5894      1680
    51.6037      1668
    51.6180      1712
    51.6323      1703
    51.6466      1677
    51.6609      1664
    51.6752      1717
    51.6895      1646
    51.7038      1696
    51.7181      1671
    51.7324      1677
    51.7467      1695
    51.7610      1631
    51.7753      1738
    51.7896      1762
    51.8039      1762
    51.8182      1615
    51.8325      1665
    51.8468      1644
    51.8611      1624
    51.8754      1685
    51.8897      1724
    51.9040      1749
    51.9183      1646
    51.9326      1673
    51.9469      1828
    51.9612      1727
    51.9755      1755
    51.9898      1773
    52.0041      1740
    52.0184      1839
    52.0327      1867
    52.0470      1800
    52.0613      1881
    52.0756      1957
    52.0899      1915
    52.1042      1905
    52.1185      1878
    52.1328      1904
    52.1471      1930
    52.1614      1930
    52.1757      1918
    52.1900      1932
    52.2043      1951
    52.2186      1950
    52.2329      2031
    52.2472      1938
    52.2615      1784
    52.2758      1909
    52.2901      1917
    52.3044      1997
    52.3187      1842
    52.3330      1904
    52.3473      1877
    52.3616      1864
    52.3759      1896
    52.3902      1894
    52.4045      1807
    52.4188      1872
    52.4331      1827
    52.4474      1953
    52.4617      1912
    52.4760      1932
    52.4903      1944
    52.5046      2000
    52.5189      2000
    52.5332      2010
    52.5475      2101
    52.5618      2128
    52.5761      2299
    52.5904      2338
    52.6047      2494
    52.6190      2490
    52.6333      2543
    52.6476      2602
    52.6619      2602
    52.6762      2506
    52.6905      2484
    52.7048      2173
    52.7191      2279
    52.7334      2387
    52.7477      2346
    52.7620      2437
    52.7763      2488
    52.7906      2430
    52.8049      2540
    52.8192      2547
    52.8335      2575
    52.8478      2618
    52.8621      2713
    52.8764      2713
    52.8907      2786
    52.9050      2854
    52.9193      2830
    52.9336      2930
    52.9479      2810
    52.9622      2810
    52.9765      2896
    52.9908      2848
    53.0051      2664
    53.0194      2666
    53.0337      2610
    53.0480      2525
    53.0623      2437
    53.0766      2385
    53.0909      2461
    53.1052      2250
    53.1195      2207
    53.1338      2183
    53.1481      2038
    53.1624      1938
    53.1767      2102
    53.1910      1930
    53.2053      1885
    53.2196      1866
    53.2339      1819
    53.2482      1788
    53.2625      1867
    53.2768      1766
    53.2911      1761
    53.3054      1730
    53.3197      1739
    53.3340      1663
    53.3483      1701
    53.3626      1673
    53.3769      1771
    53.3912      1654
    53.4055      1683
    53.4198      1755
    53.4341      1703
    53.4484      1718
    53.4627      1702
    53.4770      1668
    53.4913      1665
    53.5056      1749
    53.5199      1623
    53.5342      1686
    53.5485      1694
    53.5628      1729
    53.5771      1705
    53.5914      1701
    53.6057      1736
    53.6200      1688
    53.6343      1612
    53.6486      1682
    53.6629      1677
    53.6772      1598
    53.6915      1700
    53.7058      1540
    53.7201      1702
    53.7344      1741
    53.7487      1717
    53.7630      1670
    53.7773      1663
    53.7916      1658
    53.8059      1705
    53.8202      1737
    53.8345      1744
    53.8488      1575
    53.8631      1629
    53.8774      1662
    53.8917      1644
    53.9060      1604
    53.9203      1685
    53.9346      1583
    53.9489      1749
    53.9632      1622
    53.9775      1662
    53.9918      1682
    54.0061      1770
    54.0204      1662
    54.0347      1710
    54.0490      1614
    54.0633      1613
    54.0776      1613
    54.0919      1655
    54.1062      1651
    54.1205      1608
    54.1348      1731
    54.1491      1732
    54.1634      1711
    54.1777      1625
    54.1920      1711
    54.2063      1752
    54.2206      1661
    54.2349      1607
    54.2492      1706
    54.2635      1695
    54.2778      1673
    54.2921      1689
    54.3064      1621
    54.3207      1759
    54.3350      1748
    54.3493      1611
    54.3636      1723
    54.3779      1687
    54.3922      1755
    54.4065      1723
    54.4208      1597
    54.4351      1612
    54.4494      1690
    54.4637      1680
    54.4780      1693
    54.4923      1667
    54.5066      1661
    54.5209      1731
    54.5352      1762
    54.5495      1783
    54.5638      1649
    54.5781      1662
    54.5924      1654
    54.6067      1635
    54.6210      1589
    54.6353      1637
    54.6496      1621
    54.6639      1652
    54.6782      1625
    54.6925      1595
    54.7068      1668
    54.7211      1620
    54.7354      1653
    54.7497      1637
    54.7640      1659
    54.7783      1587
    54.7926      1628
    54.8069      1623
    54.8212      1637
    54.8355      1602
    54.8498      1665
    54.8641      1589
    54.8784      1691
    54.8927      1756
    54.9070      1725
    54.9213      1679
    54.9356      1643
    54.9499      1702
    54.9642      1699
    54.9785      1639
    54.9928      1644
    55.0071      1688
    55.0214      1593
    55.0357      1647
    55.0500      1620
    55.0643      1654
    55.0786      1594
    55.0929      1618
    55.1072      1635
    55.1215      1567
    55.1358      1611
    55.1501      1665
    55.1644      1638
    55.1787      1644
    55.1930      1636
    55.2073      1630
    55.2216      1690
    55.2359      1610
    55.2502      1623
    55.2645      1669
    55.2788      1662
    55.2931      1619
    55.3074      1679
    55.3217      1633
    55.3360      1688
    55.3503      1562
    55.3646      1679
    55.3789      1605
    55.3932      1681
    55.4075      1662
    55.4218      1690
    55.4361      1695
    55.4504      1661
    55.4647      1643
    55.4790      1570
    55.4933      1605
    55.5076      1635
    55.5219      1647
    55.5362      1672
    55.5505      1575
    55.5648      1685
    55.5791      1651
    55.5934      1548
    55.6077      1653
    55.6220      1557
    55.6363      1589
    55.6506      1666
    55.6649      1612
    55.6792      1587
    55.6935      1627
    55.7078      1667
    55.7221      1626
    55.7364      1657
    55.7507      1655
    55.7650      1588
    55.7793      1644
    55.7936      1601
    55.8079      1612
    55.8222      1562
    55.8365      1623
    55.8508      1634
    55.8651      1599
    55.8794      1637
    55.8937      1622
    55.9080      1693
    55.9223      1608
    55.9366      1683
    55.9509      1627
    55.9652      1602
    55.9795      1590
    55.9938      1628
    56.0081      1594
    56.0224      1587
    56.0367      1634
    56.0510      1672
    56.0653      1630
    56.0796      1681
    56.0939      1708
    56.1082      1589
    56.1225      1676
    56.1368      1654
    56.1511      1610
    56.1654      1574
    56.1797      1614
    56.1940      1564
    56.2083      1667
    56.2226      1679
    56.2369      1631
    56.2512      1683
    56.2655      1694
    56.2798      1617
    56.2941      1639
    56.3084      1652
    56.3227      1675
    56.3370      1680
    56.3513      1680
    56.3656      1586
    56.3799      1709
    56.3942      1651
    56.4085      1632
    56.4228      1670
    56.4371      1697
    56.4514      1685
    56.4657      1689
    56.4800      1744
    56.4943      1615
    56.5086      1752
    56.5229      1743
    56.5372      1775
    56.5515      1679
    56.5658      1709
    56.5801      1711
    56.5944      1706
    56.6087      1681
    56.6230      1788
    56.6373      1722
    56.6516      1730
    56.6659      1798
    56.6802      1754
    56.6945      1737
    56.7088      1725
    56.7231      1811
    56.7374      1735
    56.7517      1835
    56.7660      1717
    56.7803      1773
    56.7946      1773
    56.8089      1795
    56.8232      1911
    56.8375      1909
    56.8518      1986
    56.8661      2011
    56.8804      2062
    56.8947      2087
    56.9090      2070
    56.9233      2208
    56.9376      2202
    56.9519      2334
    56.9662      2507
    56.9805      2725
    56.9948      2798
    57.0091      3167
    57.0234      3302
    57.0377      3593
    57.0520      4027
    57.0663      4503
    57.0806      4968
    57.0949      5096
    57.1092      5543
    57.1235      5844
    57.1378      5933
    57.1521      5933
    57.1664      6059
    57.1807      6106
    57.1950      6159
    57.2093      5986
    57.2236      5855
    57.2379      5612
    57.2522      5451
    57.2665      5282
    57.2808      5000
    57.2951      4860
    57.3094      4745
    57.3237      4384
    57.3380      4301
    57.3523      4060
    57.3666      3917
    57.3809      3672
    57.3952      3455
    57.4095      3389
    57.4238      3110
    57.4381      3226
    57.4524      3085
    57.4667      3011
    57.4810      3168
    57.4953      3062
    57.5096      3062
    57.5239      3570
    57.5382      3845
    57.5525      3990
    57.5668      3961
    57.5811      4093
    57.5954      3809
    57.6097      3508
    57.6240      3364
    57.6383      3066
    57.6526      2994
    57.6669      2752
    57.6812      2714
    57.6955      2839
    57.7098      2865
    57.7241      2858
    57.7384      2849
    57.7527      2749
    57.7670      2658
    57.7813      2417
    57.7956      2161
    57.8099      2052
    57.8242      1967
    57.8385      1933
    57.8528      1854
    57.8671      1854
    57.8814      1814
    57.8957      1735
    57.9100      1709
    57.9243      1749
    57.9386      1711
    57.9529      1690
    57.9672      1741
    57.9815      1665
    57.9958      1776
    58.0101      1648
    58.0244      1643
    58.0387      1690
    58.0530      1657
    58.0673      1696
    58.0816      1642
    58.0959      1697
    58.1102      1704
    58.1245      1717
    58.1388      1623
    58.1531      1713
    58.1674      1648
    58.1817      1635
    58.1960      1673
    58.2103      1706
    58.2246      1706
    58.2389      1675
    58.2532      1562
    58.2675      1545
    58.2818      1599
    58.2961      1619
    58.3104      1694
    58.3247      1596
    58.3390      1620
    58.3533      1601
    58.3676      1770
    58.3819      1597
    58.3962      1656
    58.4105      1604
    58.4248      1622
    58.4391      1613
    58.4534      1608
    58.4677      1571
    58.4820      1639
    58.4963      1572
    58.5106      1660
    58.5249      1615
    58.5392      1706
    58.5535      1585
    58.5678      1651
    58.5821      1651
    58.5964      1591
    58.6107      1565
    58.6250      1687
    58.6393      1646
    58.6536      1661
    58.6679      1695
    58.6822      1659
    58.6965      1555
    58.7108      1627
    58.7251      1674
    58.7394      1621
    58.7537      1621
    58.7680      1643
    58.7823      1659
    58.7966      1679
    58.8109      1591
    58.8252      1603
    58.8395      1661
    58.8538      1710
    58.8681      1741
    58.8824      1655
    58.8967      1587
    58.9110      1587
    58.9253      1629
    58.9396      1629
    58.9539      1616
    58.9682      1668
    58.9825      1642
    58.9968      1616
    59.0111      1685
    59.0254      1682
    59.0397      1602
    59.0540      1598
    59.0683      1722
    59.0826      1650
    59.0969      1609
    59.1112      1608
    59.1255      1705
    59.1398      1646
    59.1541      1620
    59.1684      1643
    59.1827      1706
    59.1970      1703
    59.2113      1676
    59.2256      1640
    59.2399      1643
    59.2542      1643
    59.2685      1580
    59.2828      1688
    59.2971      1688
    59.3114      1702
    59.3257      1605
    59.3400      1737
    59.3543      1661
    59.3686      1707
    59.3829      1660
    59.3972      1640
    59.4115      1676
    59.4258      1681
    59.4401      1681
    59.4544      1690
    59.4687      1728
    59.4830      1691
    59.4973      1640
    59.5116      1611
    59.5259      1671
    59.5402      1649
    59.5545      1660
    59.5688      1691
    59.5831      1755
    59.5974      1605
    59.6117      1749
    59.6260      1655
    59.6403      1672
    59.6546      1672
    59.6689      1753
    59.6832      1747
    59.6975      1682
    59.7118      1716
    59.7261      1807
    59.7404      1709
    59.7547      1690
    59.7690      1729
    59.7833      1777
    59.7976      1788
    59.8119      1731
    59.8262      1715
    59.8405      1799
    59.8548      1823
    59.8691      1772
    59.8834      1812
    59.8977      1841
    59.9120      1809
    59.9263      1842
    59.9406      1825
    59.9549      1874
    59.9692      2014
    59.9835      1942
    59.9978      2024
    60.0121      2024
    60.0264      2035
    60.0407      2085
    60.0550      2082
    60.0693      2230
    60.0836      2276
    60.0979      2275
    60.1122      2403
    60.1265      2484
    60.1408      2606
    60.1551      2723
    60.1694      2919
    60.1837      3256
    60.1980      3342
    60.2123      3520
    60.2266      3983
    60.2409      4324
    60.2552      4648
    60.2695      4944
    60.2838      5197
    60.2981      5432
    60.3124      5331
    60.3267      5120
    60.3410      4826
    60.3553      4587
    60.3696      4587
    60.3839      4257
    60.3982      4436
    60.4125      4327
    60.4268      4645
    60.4411      4726
    60.4554      4961
    60.4697      4974
    60.4840      5265
    60.4983      5096
    60.5126      5435
    60.5269      5475
    60.5412      5854
    60.5555      6282
    60.5698      6770
    60.5841      7173
    60.5984      7333
    60.6127      7235
    60.6270      7095
    60.6413      6862
    60.6556      6588
    60.6699      5888
    60.6842      5743
    60.6985      5238
    60.7128      5166
    60.7271      5166
    60.7414      4983
    60.7557      4899
    60.7700      4832
    60.7843      4602
    60.7986      4528
    60.8129      4063
    60.8272      3824
    60.8415      3583
    60.8558      3182
    60.8701      3041
    60.8844      2777
    60.8987      2597
    60.9130      2367
    60.9273      2376
    60.9416      2258
    60.9559      2182
    60.9702      2113
    60.9845      2094
    60.9988      1991
    61.0131      2045
    61.0274      1989
    61.0417      2036
    61.0560      1886
    61.0703      1900
    61.0846      1900
    61.0989      1950
    61.1132      1897
    61.1275      1906
    61.1418      1987
    61.1561      1897
    61.1704      2029
    61.1847      1931
    61.1990      2022
    61.2133      1889
    61.2276      1984
    61.2419      2037
    61.2562      1977
    61.2705      1976
    61.2848      2000
    61.2991      2004
    61.3134      1981
    61.3277      2092
    61.3420      2057
    61.3563      2082
    61.3706      2069
    61.3849      2081
    61.3992      2057
    61.4135      2021
    61.4278      2070
    61.4421      2070
    61.4564      1977
    61.4707      1908
    61.4850      1945
    61.4993      1951
    61.5136      2079
    61.5279      2087
    61.5422      2012
    61.5565      2187
    61.5708      2185
    61.5851      2227
    61.5994      2208
    61.6137      2338
    61.6280      2277
    61.6423      2287
    61.6566      2346
    61.6709      2413
    61.6852      2353
    61.6995      2357
    61.7138      2370
    61.7281      2320
    61.7424      2245
    61.7567      2299
    61.7710      2267
    61.7853      2282
    61.7996      2282
    61.8139      2073
    61.8282      2094
    61.8425      2097
    61.8568      2041
    61.8711      2002
    61.8854      1952
    61.8997      1938
    61.9140      1881
    61.9283      1874
    61.9426      1820
    61.9569      1782
    61.9712      1760
    61.9855      1723
    61.9998      1722
    62.0141      1723
    62.0284      1785
    62.0427      1692
    62.0570      1629
    62.0713      1654
    62.0856      1642
    62.0999      1616
    62.1142      1603
    62.1285      1673
    62.1428      1701
    62.1571      1701
    62.1714      1622
    62.1857      1668
    62.2000      1554
    62.2143      1617
    62.2286      1635
    62.2429      1694
    62.2572      1760
    62.2715      1657
    62.2858      1663
    62.3001      1674
    62.3144      1623
    62.3287      1669
    62.3430      1625
    62.3573      1690
    62.3716      1619
    62.3859      1653
    62.4002      1633
    62.4145      1617
    62.4288      1608
    62.4431      1644
    62.4574      1647
    62.4717      1697
    62.4860      1647
    62.5003      1667
    62.5146      1667
    62.5289      1640
    62.5432      1543
    62.5575      1659
    62.5718      1680
    62.5861      1656
    62.6004      1573
    62.6147      1515
    62.6290      1672
    62.6433      1614
    62.6576      1651
    62.6719      1599
    62.6862      1606
    62.7005      1649
    62.7148      1623
    62.7291      1553
    62.7434      1609
    62.7577      1551
    62.7720      1677
    62.7863      1514
    62.8006      1565
    62.8149      1573
    62.8292      1587
    62.8435      1607
    62.8578      1587
    62.8721      1587
    62.8864      1655
    62.9007      1608
    62.9150      1630
    62.9293      1566
    62.9436      1661
    62.9579      1650
    62.9722      1583
    62.9865      1562
    63.0008      1546
    63.0151      1559
    63.0294      1585
    63.0437      1539
    63.0580      1518
    63.0723      1565
    63.0866      1637
    63.1009      1587
    63.1152      1563
    63.1295      1600
    63.1438      1630
    63.1581      1573
    63.1724      1571
    63.1867      1580
    63.2010      1559
    63.2153      1624
    63.2296      1624
    63.2439      1597
    63.2582      1630
    63.2725      1615
    63.2868      1535
    63.3011      1512
    63.3154      1520
    63.3297      1632
    63.3440      1575
    63.3583      1558
    63.3726      1643
    63.3869      1602
    63.4012      1629
    63.4155      1602
    63.4298      1560
    63.4441      1586
    63.4584      1625
    63.4727      1608
    63.4870      1689
    63.5013      1627
    63.5156      1683
    63.5299      1520
    63.5442      1589
    63.5585      1621
    63.5728      1568
    63.5871      1568
    63.6014      1529
    63.6157      1582
    63.6300      1582
    63.6443      1656
    63.6586      1597
    63.6729      1626
    63.6872      1569
    63.7015      1704
    63.7158      1563
    63.7301      1685
    63.7444      1606
    63.7587      1629
    63.7730      1614
    63.7873      1631
    63.8016      1661
    63.8159      1695
    63.8302      1680
    63.8445      1726
    63.8588      1651
    63.8731      1690
    63.8874      1643
    63.9017      1728
    63.9160      1691
    63.9303      1725
    63.9446      1725
    63.9589      1743
    63.9732      1737
    63.9875      1672
    64.0018      1776
    64.0161      1787
    64.0304      1740
    64.0447      1705
    64.0590      1735
    64.0733      1689
    64.0876      1765
    64.1019      1656
    64.1162      1732
    64.1305      1792
    64.1448      1651
    64.1591      1693
    64.1734      1718
    64.1877      1709
    64.2020      1737
    64.2163      1632
    64.2306      1630
    64.2449      1588
    64.2592      1615
    64.2735      1631
    64.2878      1653
    64.3021      1653
    64.3164      1622
    64.3307      1642
    64.3450      1646
    64.3593      1547
    64.3736      1668
    64.3879      1664
    64.4022      1619
    64.4165      1603
    64.4308      1588
    64.4451      1646
    64.4594      1627
    64.4737      1654
    64.4880      1613
    64.5023      1583
    64.5166      1645
    64.5309      1570
    64.5452      1609
    64.5595      1616
    64.5738      1536
    64.5881      1567
    64.6024      1586
    64.6167      1574
    64.6310      1544
    64.6453      1596
    64.6596      1596
    64.6739      1607
    64.6882      1552
    64.7025      1571
    64.7168      1593
    64.7311      1569
    64.7454      1601
    64.7597      1608
    64.7740      1557
    64.7883      1573
    64.8026      1577
    64.8169      1511
    64.8312      1618
    64.8455      1579
    64.8598      1552
    64.8741      1539
    64.8884      1571
    64.9027      1612
    64.9170      1553
    64.9313      1511
    64.9456      1589
    64.9599      1578
    64.9742      1642
    64.9885      1625
    65.0028      1630
    65.0171      1630
    65.0314      1538
    65.0457      1557
    65.0600      1538
    65.0743      1561
    65.0886      1577
    65.1029      1554
    65.1172      1587
    65.1315      1498
    65.1458      1547
    65.1601      1606
    65.1744      1595
    65.1887      1634
    65.2030      1641
    65.2173      1598
    65.2316      1564
    65.2459      1537
    65.2602      1529
    65.2745      1590
    65.2888      1634
    65.3031      1546
    65.3174      1541
    65.3317      1548
    65.3460      1607
    65.3603      1485
    65.3746      1485
    65.3889      1642
    65.4032      1610
    65.4175      1649
    65.4318      1523
    65.4461      1608
    65.4604      1629
    65.4747      1550
    65.4890      1546
    65.5033      1535
    65.5176      1635
    65.5319      1517
    65.5462      1642
    65.5605      1612
    65.5748      1584
    65.5891      1543
    65.6034      1661
    65.6177      1587
    65.6320      1568
    65.6463      1548
    65.6606      1598
    65.6749      1541
    65.6892      1575
    65.7035      1460
    65.7178      1514
    65.7321      1514
    65.7464      1610
    65.7607      1571
    65.7750      1584
    65.7893      1606
    65.8036      1600
    65.8179      1550
    65.8322      1535
    65.8465      1532
    65.8608      1597
    65.8751      1552
    65.8894      1553
    65.9037      1631
    65.9180      1629
    65.9323      1541
    65.9466      1585
    65.9609      1583
    65.9752      1592
    65.9895      1589
    66.0038      1507
    66.0181      1548
    66.0324      1661
    66.0467      1613
    66.0610      1611
    66.0753      1611
    66.0896      1611
    66.1039      1604
    66.1182      1647
    66.1325      1605
    66.1468      1684
    66.1611      1673
    66.1754      1757
    66.1897      1695
    66.2040      1750
    66.2183      1767
    66.2326      1761
    66.2469      1674
    66.2612      1785
    66.2755      1892
    66.2898      1843
    66.3041      1951
    66.3184      2119
    66.3327      2182
    66.3470      2236
    66.3613      2254
    66.3756      2379
    66.3899      2400
    66.4042      2450
    66.4185      2445
    66.4328      2537
    66.4471      2537
    66.4614      2553
    66.4757      2597
    66.4900      2661
    66.5043      2651
    66.5186      2719
    66.5329      2763
    66.5472      2707
    66.5615      2732
    66.5758      2717
    66.5901      2734
    66.6044      2673
    66.6187      2705
    66.6330      2596
    66.6473      2473
    66.6616      2498
    66.6759      2321
    66.6902      2226
    66.7045      2238
    66.7188      2133
    66.7331      2057
    66.7474      2043
    66.7617      1977
    66.7760      2067
    66.7903      2105
    66.8046      2105
    66.8189      1886
    66.8332      1882
    66.8475      1800
    66.8618      1748
    66.8761      1778
    66.8904      1703
    66.9047      1607
    66.9190      1654
    66.9333      1619
    66.9476      1581
    66.9619      1563
    66.9762      1651
    66.9905      1662
    67.0048      1642
    67.0191      1684
    67.0334      1630
    67.0477      1542
    67.0620      1554
    67.0763      1576
    67.0906      1523
    67.1049      1571
    67.1192      1554
    67.1335      1566
    67.1478      1634
    67.1621      1634
    67.1764      1630
    67.1907      1599
    67.2050      1599
    67.2193      1596
    67.2336      1593
    67.2479      1582
    67.2622      1605
    67.2765      1612
    67.2908      1580
    67.3051      1529
    67.3194      1632
    67.3337      1570
    67.3480      1626
    67.3623      1578
    67.3766      1609
    67.3909      1622
    67.4052      1576
    67.4195      1617
    67.4338      1581
    67.4481      1599
    67.4624      1610
    67.4767      1512
    67.4910      1515
    67.5053      1554
    67.5196      1554
    67.5339      1508
    67.5482      1538
    67.5625      1536
    67.5768      1531
    67.5911      1537
    67.6054      1527
    67.6197      1583
    67.6340      1510
    67.6483      1515
    67.6626      1537
    67.6769      1501
    67.6912      1607
    67.7055      1535
    67.7198      1548
    67.7341      1518
    67.7484      1643
    67.7627      1583
    67.7770      1526
    67.7913      1606
    67.8056      1593
    67.8199      1573
    67.8342      1616
    67.8485      1582
    67.8628      1630
    67.8771      1630
    67.8914      1567
    67.9057      1616
    67.9200      1542
    67.9343      1581
    67.9486      1616
    67.9629      1645
    67.9772      1563
    67.9915      1628
    68.0058      1610
    68.0201      1575
    68.0344      1571
    68.0487      1647
    68.0630      1652
    68.0773      1688
    68.0916      1610
    68.1059      1634
    68.1202      1710
    68.1345      1752
    68.1488      1623
    68.1631      1814
    68.1774      1905
    68.1917      1847
    68.2060      1915
    68.2203      1943
    68.2346      1943
    68.2489      2152
    68.2632      2177
    68.2775      2233
    68.2918      2332
    68.3061      2344
    68.3204      2310
    68.3347      2251
    68.3490      2226
    68.3633      2062
    68.3776      2087
    68.3919      2109
    68.4062      2082
    68.4205      2060
    68.4348      2058
    68.4491      2096
    68.4634      2144
    68.4777      2071
    68.4920      2123
    68.5063      2163
    68.5206      2102
    68.5349      2029
    68.5492      1928
    68.5635      1869
    68.5778      1835
    68.5921      1835
    68.6064      1737
    68.6207      1762
    68.6350      1695
    68.6493      1746
    68.6636      1671
    68.6779      1750
    68.6922      1685
    68.7065      1646
    68.7208      1677
    68.7351      1691
    68.7494      1558
    68.7637      1606
    68.7780      1635
    68.7923      1589
    68.8066      1610
    68.8209      1597
    68.8352      1563
    68.8495      1581
    68.8638      1513
    68.8781      1589
    68.8924      1538
    68.9067      1605
    68.9210      1552
    68.9353      1489
    68.9496      1489
    68.9639      1511
    68.9782      1539
    68.9925      1585
    69.0068      1462
    69.0211      1593
    69.0354      1521
    69.0497      1531
    69.0640      1561
    69.0783      1513
    69.0926      1571
    69.1069      1509
    69.1212      1546
    69.1355      1529
    69.1498      1562
    69.1641      1559
    69.1784      1652
    69.1927      1599
    69.2070      1597
    69.2213      1480
    69.2356      1503
    69.2499      1496
    69.2642      1561
    69.2785      1561
    69.2928      1494
    69.3071      1494
    69.3214      1539
    69.3357      1606
    69.3500      1545
    69.3643      1549
    69.3786      1556
    69.3929      1535
    69.4072      1513
    69.4215      1548
    69.4358      1515
    69.4501      1592
    69.4644      1553
    69.4787      1562
    69.4930      1570
    69.5073      1520
    69.5216      1612
    69.5359      1535
    69.5502      1522
    69.5645      1630
    69.5788      1521
    69.5931      1581
    69.6074      1553
    69.6217      1582
    69.6360      1538
    69.6503      1625
    69.6646      1625
    69.6789      1634
    69.6932      1540
    69.7075      1538
    69.7218      1577
    69.7361      1588
    69.7504      1606
    69.7647      1545
    69.7790      1667
    69.7933      1661
    69.8076      1570
    69.8219      1600
    69.8362      1612
    69.8505      1592
    69.8648      1624
    69.8791      1593
    69.8934      1623
    69.9077      1632
    69.9220      1651
    69.9363      1595
    69.9506      1664
    69.9649      1604
    69.9792      1610
    69.9935      1651
    70.0078      1655
    70.0221      1655
    70.0364      1559
    70.0507      1630
    70.0650      1527
    70.0793      1597
    70.0936      1551
    70.1079      1598
    70.1222      1636
    70.1365      1647
    70.1508      1553
    70.1651      1612
    70.1794      1606
    70.1937      1614
    70.2080      1627
    70.2223      1540
    70.2366      1597
    70.2509      1690
    70.2652      1605
    70.2795      1624
    70.2938      1643
    70.3081      1653
    70.3224      1533
    70.3367      1643
    70.3510      1566
    70.3653      1553
    70.3796      1553
    70.3939      1607
    70.4082      1543
    70.4225      1463
    70.4368      1616
    70.4511      1600
    70.4654      1595
    70.4797      1594
    70.4940      1563
    70.5083      1538
    70.5226      1633
    70.5369      1557
    70.5512      1615
    70.5655      1656
    70.5798      1563
    70.5941      1646
    70.6084      1612
    70.6227      1634
    70.6370      1647
    70.6513      1616
    70.6656      1579
    70.6799      1677
    70.6942      1612
    70.7085      1529
    70.7228      1591
    70.7371      1591
    70.7514      1634
    70.7657      1584
    70.7800      1681
    70.7943      1592
    70.8086      1690
    70.8229      1613
    70.8372      1652
    70.8515      1695
    70.8658      1695
    70.8801      1698
    70.8944      1644
    70.9087      1699
    70.9230      1753
    70.9373      1702
    70.9516      1774
    70.9659      1742
    70.9802      1754
    70.9945      1892
    71.0088      1850
    71.0231      1920
    71.0374      1997
    71.0517      1948
    71.0660      1926
    71.0803      2111
    71.0946      2111
    71.1089      2077
    71.1232      2103
    71.1375      2089
    71.1518      2090
    71.1661      2130
    71.1804      2095
    71.1947      2184
    71.2090      2207
    71.2233      2366
    71.2376      2394
    71.2519      2321
    71.2662      2523
    71.2805      2775
    71.2948      2744
    71.3091      2958
    71.3234      3257
    71.3377      3428
    71.3520      3737
    71.3663      3988
    71.3806      4215
    71.3949      4583
    71.4092      5008
    71.4235      4981
    71.4378      5378
    71.4521      5378
    71.4664      5528
    71.4807      5561
    71.4950      5705
    71.5093      5671
    71.5236      5767
    71.5379      5689
    71.5522      5510
    71.5665      5686
    71.5808      5526
    71.5951      5298
    71.6094      5346
    71.6237      5297
    71.6380      5050
    71.6523      4836
    71.6666      4693
    71.6809      4432
    71.6952      4375
    71.7095      4258
    71.7238      4223
    71.7381      3871
    71.7524      3721
    71.7667      3535
    71.7810      3375
    71.7953      3443
    71.8096      3443
    71.8239      2940
    71.8382      2770
    71.8525      2686
    71.8668      2509
    71.8811      2325
    71.8954      2272
    71.9097      2153
    71.9240      2130
    71.9383      1981
    71.9526      1995
    71.9669      1930
    71.9812      1946
    71.9955      1990
    72.0098      1881
    72.0241      1849
    72.0384      1904
    72.0527      1808
    72.0670      1892
    72.0813      1730
    72.0956      1814
    72.1099      1771
    72.1242      1850
    72.1385      1789
    72.1528      1786
    72.1671      1786
    72.1814      1855
    72.1957      1835
    72.2100      1841
    72.2243      1888
    72.2386      1900
    72.2529      1900
    72.2672      1861
    72.2815      1909
    72.2958      2020
    72.3101      2072
    72.3244      2098
    72.3387      2205
    72.3530      2229
    72.3673      2318
    72.3816      2447
    72.3959      2631
    72.4102      2783
    72.4245      2986
    72.4388      3116
    72.4531      3412
    72.4674      3579
    72.4817      3789
    72.4960      4060
    72.5103      4306
    72.5246      4306
    72.5389      4368
    72.5532      4422
    72.5675      4213
    72.5818      4149
    72.5961      4103
    72.6104      3897
    72.6247      3606
    72.6390      3767
    72.6533      3562
    72.6676      3487
    72.6819      3460
    72.6962      3495
    72.7105      3498
    72.7248      3508
    72.7391      3439
    72.7534      3454
    72.7677      3298
    72.7820      3295
    72.7963      3216
    72.8106      2936
    72.8249      2844
    72.8392      2691
    72.8535      2540
    72.8678      2421
    72.8821      2421
    72.8964      2206
    72.9107      2130
    72.9250      2063
    72.9393      1936
    72.9536      1893
    72.9679      1923
    72.9822      1910
    72.9965      1857
    73.0108      1846
    73.0251      1880
    73.0394      1728
    73.0537      1779
    73.0680      1747
    73.0823      1696
    73.0966      1778
    73.1109      1738
    73.1252      1677
    73.1395      1757
    73.1538      1752
    73.1681      1690
    73.1824      1655
    73.1967      1576
    73.2110      1581
    73.2253      1656
    73.2396      1656
    73.2539      1567
    73.2682      1716
    73.2825      1625
    73.2968      1599
    73.3111      1622
    73.3254      1551
    73.3397      1605
    73.3540      1590
    73.3683      1564
    73.3826      1634
    73.3969      1552
    73.4112      1591
    73.4255      1569
    73.4398      1535
    73.4541      1467
    73.4684      1588
    73.4827      1522
    73.4970      1585
    73.5113      1524
    73.5256      1557
    73.5399      1623
    73.5542      1528
    73.5685      1504
    73.5828      1546
    73.5971      1546
    73.6114      1596
    73.6257      1647
    73.6400      1543
    73.6543      1578
    73.6686      1629
    73.6829      1591
    73.6972      1636
    73.7115      1512
    73.7258      1532
    73.7401      1531
    73.7544      1565
    73.7687      1653
    73.7830      1621
    73.7973      1586
    73.8116      1578
    73.8259      1613
    73.8402      1646
    73.8545      1688
    73.8688      1649
    73.8831      1671
    73.8974      1625
    73.9117      1693
    73.9260      1608
    73.9403      1727
    73.9546      1727
    73.9689      1655
    73.9832      1660
    73.9975      1719
    74.0118      1773
    74.0261      1821
    74.0404      1851
    74.0547      1821
    74.0690      1933
    74.0833      1840
    74.0976      1909
    74.1119      1956
    74.1262      2087
    74.1405      2081
    74.1548      2158
    74.1691      2211
    74.1834      2442
    74.1977      2496
    74.2120      2719
    74.2263      2801
    74.2406      2917
    74.2549      3108
    74.2692      3387
    74.2835      3353
    74.2978      3477
    74.3121      3477
    74.3264      3646
    74.3407      3574
    74.3550      3601
    74.3693      3723
    74.3836      3876
    74.3979      3975
    74.4122      4125
    74.4265      4384
    74.4408      4716
    74.4551      4933
    74.4694      4993
    74.4837      5235
    74.4980      5261
    74.5123      5186
    74.5266      5124
    74.5409      4873
    74.5552      4498
    74.5695      4583
    74.5838      4166
    74.5981      3982
    74.6124      3755
    74.6267      3585
    74.6410      3380
    74.6553      3470
    74.6696      3470
    74.6839      3385
    74.6982      3412
    74.7125      3395
    74.7268      3349
    74.7411      3357
    74.7554      3147
    74.7697      2898
    74.7840      2761
    74.7983      2542
    74.8126      2479
    74.8269      2305
    74.8412      2184
    74.8555      2152
    74.8698      2139
    74.8841      2102
    74.8984      1951
    74.9127      1785
    74.9270      1855
    74.9413      1721
    74.9556      1815
    74.9699      1764
    74.9842      1750
    74.9985      1671
    75.0128      1816
    75.0271      1816
    75.0414      1663
    75.0557      1560
    75.0700      1689
    75.0843      1703
    75.0986      1624
    75.1129      1593
    75.1272      1590
    75.1415      1654
    75.1558      1612
    75.1701      1598
    75.1844      1557
    75.1987      1552
    75.2130      1590
    75.2273      1553
    75.2416      1574
    75.2559      1612
    75.2702      1642
    75.2845      1621
    75.2988      1530
    75.3131      1584
    75.3274      1572
    75.3417      1590
    75.3560      1548
    75.3703      1540
    75.3846      1540
    75.3989      1580
    75.4132      1533
    75.4275      1541
    75.4418      1482
    75.4561      1508
    75.4704      1564
    75.4847      1495
    75.4990      1588
    75.5133      1532
    75.5276      1590
    75.5419      1465
    75.5562      1557
    75.5705      1537
    75.5848      1571
    75.5991      1503
    75.6134      1631
    75.6277      1521
    75.6420      1575
    75.6563      1535
    75.6706      1577
    75.6849      1540
    75.6992      1526
    75.7135      1512
    75.7278      1558
    75.7421      1558
    75.7564      1567
    75.7707      1545
    75.7850      1585
    75.7993      1587
    75.8136      1618
    75.8279      1613
    75.8422      1542
    75.8565      1532
    75.8708      1584
    75.8851      1689
    75.8994      1587
    75.9137      1687
    75.9280      1681
    75.9423      1714
    75.9566      1712
    75.9709      1705
    75.9852      1777
    75.9995      1827
    76.0138      1792
    76.0281      1824
    76.0424      1812
    76.0567      1885
    76.0710      1848
    76.0853      2055
    76.0996      2055
    76.1139      2170
    76.1282      2225
    76.1425      2342
    76.1568      2434
    76.1711      2555
    76.1854      2565
    76.1997      2657
    76.2140      2872
    76.2283      2953
    76.2426      3079
    76.2569      3000
    76.2712      3329
    76.2855      3328
    76.2998      3412
    76.3141      3356
    76.3284      3450
    76.3427      3394
    76.3570      3335
    76.3713      3155
    76.3856      3104
    76.3999      2848
    76.4142      2961
    76.4285      2832
    76.4428      2726
    76.4571      2726
    76.4714      2753
    76.4857      2779
    76.5000      2766
    76.5143      2666
    76.5286      2774
    76.5429      2704
    76.5572      2680
    76.5715      2572
    76.5858      2510
    76.6001      2436
    76.6144      2463
    76.6287      2522
    76.6430      2450
    76.6573      2448
    76.6716      2570
    76.6859      2574
    76.7002      2505
    76.7145      2652
    76.7288      2633
    76.7431      2778
    76.7574      2747
    76.7717      2813
    76.7860      2770
    76.8003      2808
    76.8146      2808
    76.8289      2872
    76.8432      2797
    76.8575      2822
    76.8718      3049
    76.8861      3078
    76.9004      3038
    76.9147      3039
    76.9290      3158
    76.9433      3200
    76.9576      3144
    76.9719      2939
    76.9862      2888
    77.0005      2744
    77.0148      2694
    77.0291      2658
    77.0434      2542
    77.0577      2389
    77.0720      2351
    77.0863      2279
    77.1006      2316
    77.1149      2259
    77.1292      2332
    77.1435      2281
    77.1578      2240
    77.1721      2240
    77.1864      2183
    77.2007      2075
    77.2150      2058
    77.2293      1991
    77.2436      2015
    77.2579      1928
    77.2722      1852
    77.2865      1838
    77.3008      1962
    77.3151      1866
    77.3294      1822
    77.3437      1763
    77.3580      1785
    77.3723      1671
    77.3866      1637
    77.4009      1678
    77.4152      1602
    77.4295      1616
    77.4438      1655
    77.4581      1655
    77.4724      1582
    77.4867      1549
    77.5010      1588
    77.5153      1643
    77.5296      1643
    77.5439      1640
    77.5582      1577
    77.5725      1621
    77.5868      1546
    77.6011      1583
    77.6154      1524
    77.6297      1536
    77.6440      1479
    77.6583      1453
    77.6726      1500
    77.6869      1505
    77.7012      1462
    77.7155      1540
    77.7298      1438
    77.7441      1402
    77.7584      1462
    77.7727      1541
    77.7870      1557
    77.8013      1477
    77.8156      1478
    77.8299      1365
    77.8442      1505
    77.8585      1394
    77.8728      1479
    77.8871      1479
    77.9014      1463
    77.9157      1509
    77.9300      1415
    77.9443      1434
    77.9586      1438
    77.9729      1374
    77.9872      1394
    78.0015      1413
    78.0158      1421
    78.0301      1469
    78.0444      1414
    78.0587      1347
    78.0730      1544
    78.0873      1400
    78.1016      1466
    78.1159      1515
    78.1302      1491
    78.1445      1467
    78.1588      1443
    78.1731      1453
    78.1874      1481
    78.2017      1505
    78.2160      1491
    78.2303      1516
    78.2446      1516
    78.2589      1380
    78.2732      1487
    78.2875      1462
    78.3018      1417
    78.3161      1420
    78.3304      1436
    78.3447      1433
    78.3590      1449
    78.3733      1455
    78.3876      1446
    78.4019      1476
    78.4162      1517
    78.4305      1447
    78.4448      1518
    78.4591      1568
    78.4734      1498
    78.4877      1466
    78.5020      1428
    78.5163      1453
    78.5306      1474
    78.5449      1434
    78.5592      1452
    78.5735      1473
    78.5878      1485
    78.6021      1485
    78.6164      1516
    78.6307      1416
    78.6450      1374
    78.6593      1443
    78.6736      1486
    78.6879      1400
    78.7022      1381
    78.7165      1423
    78.7308      1411
    78.7451      1520
    78.7594      1343
    78.7737      1391
    78.7880      1418
    78.8023      1374
    78.8166      1423
    78.8309      1485
    78.8452      1437
    78.8595      1443
    78.8738      1364
    78.8881      1445
    78.9024      1420
    78.9167      1450
    78.9310      1393
    78.9453      1399
    78.9596      1399
    78.9739      1411
    78.9882      1482
    79.0025      1440
    79.0168      1388
    79.0311      1393
    79.0454      1449
    79.0597      1372
    79.0740      1476
    79.0883      1414
    79.1026      1373
    79.1169      1440
    79.1312      1427
    79.1455      1452
    79.1598      1404
    79.1741      1420
    79.1884      1332
    79.2027      1415
    79.2170      1487
    79.2313      1377
    79.2456      1427
    79.2599      1498
    79.2742      1350
    79.2885      1389
    79.3028      1443
    79.3171      1443
    79.3314      1387
    79.3457      1397
    79.3600      1401
    79.3743      1413
    79.3886      1477
    79.4029      1479
    79.4172      1404
    79.4315      1366
    79.4458      1441
    79.4601      1435
    79.4744      1357
    79.4887      1437
    79.5030      1359
    79.5173      1439
    79.5316      1435
    79.5459      1459
    79.5602      1406
    79.5745      1482
    79.5888      1390
    79.6031      1428
    79.6174      1424
    79.6317      1385
    79.6460      1400
    79.6603      1479
    79.6746      1479
    79.6889      1369
    79.7032      1457
    79.7175      1422
    79.7318      1418
    79.7461      1455
    79.7604      1397
    79.7747      1424
    79.7890      1337
    79.8033      1393
    79.8176      1409
    79.8319      1370
    79.8462      1383
    79.8605      1437
    79.8748      1357
    79.8891      1459
    79.9034      1438
    79.9177      1423
    79.9320      1489
    79.9463      1428
    79.9606      1418
    79.9749      1451
    79.9892      1472
    80.0035      1423
    80.0178      1422
    80.0321      1422
    80.0464      1332
    80.0607      1479
    80.0750      1493
    80.0893      1358
    80.1036      1402
    80.1179      1441
    80.1322      1482
    80.1465      1438
    80.1608      1420
    80.1751      1403
    80.1894      1343
    80.2037      1382
    80.2180      1371
    80.2323      1430
    80.2466      1418
    80.2609      1500
    80.2752      1399
    80.2895      1429
    80.3038      1456
    80.3181      1411
    80.3324      1379
    80.3467      1431
    80.3610      1374
    80.3753      1352
    80.3896      1352
    80.4039      1498
    80.4182      1429
    80.4325      1394
    80.4468      1422
    80.4611      1435
    80.4754      1448
    80.4897      1501
    80.5040      1485
    80.5183      1423
    80.5326      1485
    80.5469      1390
    80.5612      1427
    80.5755      1479
    80.5898      1392
    80.6041      1484
    80.6184      1461
    80.6327      1425
    80.6470      1488
    80.6613      1455
    80.6756      1453
    80.6899      1470
    80.7042      1557
    80.7185      1495
    80.7328      1535
    80.7471      1535
    80.7614      1513
    80.7757      1500
    80.7900      1526
    80.8043      1474
    80.8186      1537
    80.8329      1517
    80.8472      1517
    80.8615      1482
    80.8758      1507
    80.8901      1527
    80.9044      1488
    80.9187      1565
    80.9330      1513
    80.9473      1476
    80.9616      1553
    80.9759      1521
    80.9902      1545
    81.0045      1485
    81.0188      1492
    81.0331      1538
    81.0474      1533
    81.0617      1588
    81.0760      1566
    81.0903      1577
    81.1046      1577
    81.1189      1580
    81.1332      1579
    81.1475      1569
    81.1618      1600
    81.1761      1666
    81.1904      1562
    81.2047      1588
    81.2190      1576
    81.2333      1529
    81.2476      1596
    81.2619      1524
    81.2762      1550
    81.2905      1518
    81.3048      1485
    81.3191      1495
    81.3334      1535
    81.3477      1484
    81.3620      1495
    81.3763      1482
    81.3906      1489
    81.4049      1480
    81.4192      1499
    81.4335      1397
    81.4478      1421
    81.4621      1421
    81.4764      1437
    81.4907      1412
    81.5050      1438
    81.5193      1389
    81.5336      1466
    81.5479      1517
    81.5622      1455
    81.5765      1419
    81.5908      1337
    81.6051      1435
    81.6194      1410
    81.6337      1399
    81.6480      1442
    81.6623      1409
    81.6766      1370
    81.6909      1388
    81.7052      1431
    81.7195      1460
    81.7338      1397
    81.7481      1454
    81.7624      1426
    81.7767      1418
    81.7910      1360
    81.8053      1391
    81.8196      1391
    81.8339      1405
    81.8482      1416
    81.8625      1374
    81.8768      1409
    81.8911      1332
    81.9054      1479
    81.9197      1347
    81.9340      1347
    81.9483      1397
    81.9626      1431
    81.9769      1445
    81.9912      1406
    82.0055      1485
    82.0198      1419
    82.0341      1450
    82.0484      1428
    82.0627      1421
    82.0770      1483
    82.0913      1482
    82.1056      1370
    82.1199      1390
    82.1342      1447
    82.1485      1410
    82.1628      1404
    82.1771      1404
    82.1914      1468
    82.2057      1465
    82.2200      1430
    82.2343      1490
    82.2486      1503
    82.2629      1495
    82.2772      1422
    82.2915      1519
    82.3058      1458
    82.3201      1464
    82.3344      1426
    82.3487      1495
    82.3630      1525
    82.3773      1521
    82.3916      1515
    82.4059      1551
    82.4202      1490
    82.4345      1606
    82.4488      1525
    82.4631      1531
    82.4774      1543
    82.4917      1582
    82.5060      1554
    82.5203      1519
    82.5346      1519
    82.5489      1487
    82.5632      1472
    82.5775      1552
    82.5918      1554
    82.6061      1522
    82.6204      1536
    82.6347      1456
    82.6490      1436
    82.6633      1422
    82.6776      1410
    82.6919      1444
    82.7062      1494
    82.7205      1494
    82.7348      1412
    82.7491      1412
    82.7634      1553
    82.7777      1498
    82.7920      1504
    82.8063      1421
    82.8206      1433
    82.8349      1438
    82.8492      1428
    82.8635      1323
    82.8778      1415
    82.8921      1415
    82.9064      1470
    82.9207      1411
    82.9350      1437
    82.9493      1393
    82.9636      1477
    82.9779      1451
    82.9922      1394
    83.0065      1401
    83.0208      1453
    83.0351      1438
    83.0494      1380
    83.0637      1407
    83.0780      1379
    83.0923      1408
    83.1066      1394
    83.1209      1482
    83.1352      1314
    83.1495      1442
    83.1638      1387
    83.1781      1376
    83.1924      1380
    83.2067      1449
    83.2210      1335
    83.2353      1396
    83.2496      1396
    83.2639      1401
    83.2782      1312
    83.2925      1353
    83.3068      1338
    83.3211      1384
    83.3354      1369
    83.3497      1311
    83.3640      1395
    83.3783      1375
    83.3926      1387
    83.4069      1374
    83.4212      1366
    83.4355      1406
    83.4498      1438
    83.4641      1374
    83.4784      1423
    83.4927      1379
    83.5070      1467
    83.5213      1407
    83.5356      1402
    83.5499      1400
    83.5642      1363
    83.5785      1356
    83.5928      1438
    83.6071      1438
    83.6214      1347
    83.6357      1333
    83.6500      1374
    83.6643      1364
    83.6786      1352
    83.6929      1385
    83.7072      1367
    83.7215      1393
    83.7358      1356
    83.7501      1380
    83.7644      1397
    83.7787      1405
    83.7930      1398
    83.8073      1379
    83.8216      1397
    83.8359      1371
    83.8502      1407
    83.8645      1388
    83.8788      1446
    83.8931      1446
    83.9074      1400
    83.9217      1393
    83.9360      1328
    83.9503      1359
    83.9646      1359
    83.9789      1405
    83.9932      1408
    84.0075      1409
    84.0218      1366
    84.0361      1419
    84.0504      1400
    84.0647      1366
    84.0790      1449
    84.0933      1351
    84.1076      1433
    84.1219      1416
    84.1362      1469
    84.1505      1387
    84.1648      1366
    84.1791      1452
    84.1934      1537
    84.2077      1491
    84.2220      1507
    84.2363      1547
    84.2506      1443
    84.2649      1485
    84.2792      1535
    84.2935      1505
    84.3078      1509
    84.3221      1509
    84.3364      1478
    84.3507      1576
    84.3650      1584
    84.3793      1487
    84.3936      1577
    84.4079      1466
    84.4222      1602
    84.4365      1507
    84.4508      1500
    84.4651      1585
    84.4794      1446
    84.4937      1499
    84.5080      1476
    84.5223      1458
    84.5366      1570
    84.5509      1526
    84.5652      1511
    84.5795      1532
    84.5938      1552
    84.6081      1520
    84.6224      1522
    84.6367      1531
    84.6510      1505
    84.6653      1549
    84.6796      1549
    84.6939      1504
    84.7082      1614
    84.7225      1604
    84.7368      1651
    84.7511      1613
    84.7654      1635
    84.7797      1670
    84.7940      1700
    84.8083      1727
    84.8226      1710
    84.8369      1730
    84.8512      1843
    84.8655      1888
    84.8798      1933
    84.8941      2078
    84.9084      2076
    84.9227      1979
    84.9370      2130
    84.9513      2227
    84.9656      2267
    84.9799      2331
    84.9942      2344
    85.0085      2418
    85.0228      2461
    85.0371      2461
    85.0514      2476
    85.0657      2540
    85.0800      2454
    85.0943      2610
    85.1086      2616
    85.1229      2629
    85.1372      2499
    85.1515      2641
    85.1658      2599
    85.1801      2593
    85.1944      2585
    85.2087      2624
    85.2230      2619
    85.2373      2603
    85.2516      2598
    85.2659      2438
    85.2802      2432
    85.2945      2546
    85.3088      2359
    85.3231      2435
    85.3374      2294
    85.3517      2326
    85.3660      2238
    85.3803      2145
    85.3946      2145
    85.4089      2167
    85.4232      2008
    85.4375      2062
    85.4518      1956
    85.4661      1962
    85.4804      1890
    85.4947      1867
    85.5090      1790
    85.5233      1791
    85.5376      1750
    85.5519      1736
    85.5662      1631
    85.5805      1722
    85.5948      1659
    85.6091      1690
    85.6234      1633
    85.6377      1625
    85.6520      1594
    85.6663      1510
    85.6806      1480
    85.6949      1530
    85.7092      1544
    85.7235      1387
    85.7378      1482
    85.7521      1482
    85.7664      1482
    85.7807      1463
    85.7950      1391
    85.8093      1379
    85.8236      1449
    85.8379      1466
    85.8522      1433
    85.8665      1382
    85.8808      1418
    85.8951      1421
    85.9094      1318
    85.9237      1406
    85.9380      1367
    85.9523      1385
    85.9666      1378
    85.9809      1372
    85.9952      1383
    86.0095      1417
    86.0238      1358
    86.0381      1437
    86.0524      1359
    86.0667      1331
    86.0810      1378
    86.0953      1443
    86.1096      1443
    86.1239      1348
    86.1382      1370
    86.1525      1363
    86.1668      1371
    86.1811      1462
    86.1954      1462
    86.2097      1404
    86.2240      1434
    86.2383      1440
    86.2526      1459
    86.2669      1441
    86.2812      1374
    86.2955      1399
    86.3098      1458
    86.3241      1441
    86.3384      1486
    86.3527      1443
    86.3670      1494
    86.3813      1476
    86.3956      1504
    86.4099      1533
    86.4242      1484
    86.4385      1521
    86.4528      1446
    86.4671      1446
    86.4814      1483
    86.4957      1466
    86.5100      1384
    86.5243      1417
    86.5386      1518
    86.5529      1478
    86.5672      1468
    86.5815      1460
    86.5958      1468
    86.6101      1446
    86.6244      1484
    86.6387      1492
    86.6530      1427
    86.6673      1467
    86.6816      1470
    86.6959      1457
    86.7102      1476
    86.7245      1493
    86.7388      1443
    86.7531      1432
    86.7674      1452
    86.7817      1483
    86.7960      1351
    86.8103      1473
    86.8246      1473
    86.8389      1473
    86.8532      1421
    86.8675      1422
    86.8818      1468
    86.8961      1412
    86.9104      1436
    86.9247      1387
    86.9390      1475
    86.9533      1467
    86.9676      1375
    86.9819      1348
    86.9962      1414
    87.0105      1453
    87.0248      1485
    87.0391      1491
    87.0534      1450
    87.0677      1452
    87.0820      1495
    87.0963      1403
    87.1106      1415
    87.1249      1357
    87.1392      1437
    87.1535      1369
    87.1678      1434
    87.1821      1434
    87.1964      1359
    87.2107      1364
    87.2250      1430
    87.2393      1383
    87.2536      1473
    87.2679      1428
    87.2822      1320
    87.2965      1452
    87.3108      1395
    87.3251      1408
    87.3394      1349
    87.3537      1448
    87.3680      1414
    87.3823      1369
    87.3966      1356
    87.4109      1370
    87.4252      1474
    87.4395      1401
    87.4538      1391
    87.4681      1433
    87.4824      1461
    87.4967      1473
    87.5110      1380
    87.5253      1504
    87.5396      1504
    87.5539      1463
    87.5682      1426
    87.5825      1412
    87.5968      1513
    87.6111      1460
    87.6254      1551
    87.6397      1483
    87.6540      1583
    87.6683      1582
    87.6826      1635
    87.6969      1658
    87.7112      1688
    87.7255      1691
    87.7398      1731
    87.7541      1809
    87.7684      1790
    87.7827      1741
    87.7970      1810
    87.8113      1757
    87.8256      1790
    87.8399      1698
    87.8542      1669
    87.8685      1692
    87.8828      1692
    87.8971      1692
    87.9114      1557
    87.9257      1615
    87.9400      1592
    87.9543      1536
    87.9686      1569
    87.9829      1560
    87.9972      1564
    88.0115      1663
    88.0258      1608
    88.0401      1621
    88.0544      1618
    88.0687      1539
    88.0830      1609
    88.0973      1599
    88.1116      1583
    88.1259      1614
    88.1402      1532
    88.1545      1596
    88.1688      1501
    88.1831      1482
    88.1974      1506
    88.2117      1454
    88.2260      1483
    88.2403      1425
    88.2546      1425
    88.2689      1535
    88.2832      1476
    88.2975      1491
    88.3118      1470
    88.3261      1505
    88.3404      1511
    88.3547      1486
    88.3690      1467
    88.3833      1427
    88.3976      1509
    88.4119      1461
    88.4262      1495
    88.4405      1458
    88.4548      1419
    88.4691      1423
    88.4834      1507
    88.4977      1448
    88.5120      1448
    88.5263      1430
    88.5406      1432
    88.5549      1498
    88.5692      1400
    88.5835      1335
    88.5978      1413
    88.6121      1413
    88.6264      1424
    88.6407      1449
    88.6550      1365
    88.6693      1386
    88.6836      1363
    88.6979      1398
    88.7122      1328
    88.7265      1414
    88.7408      1337
    88.7551      1420
    88.7694      1335
    88.7837      1372
    88.7980      1395
    88.8123      1298
    88.8266      1384
    88.8409      1373
    88.8552      1394
    88.8695      1422
    88.8838      1367
    88.8981      1378
    88.9124      1411
    88.9267      1364
    88.9410      1321
    88.9553      1353
    88.9696      1353
    88.9839      1365
    88.9982      1365
    89.0125      1435
    89.0268      1443
    89.0411      1515
    89.0554      1466
    89.0697      1484
    89.0840      1530
    89.0983      1509
    89.1126      1444
    89.1269      1419
    89.1412      1403
    89.1555      1395
    89.1698      1324
    89.1841      1393
    89.1984      1401
    89.2127      1348
    89.2270      1388
    89.2413      1348
    89.2556      1335
    89.2699      1362
    89.2842      1370
    89.2985      1326
    89.3128      1423
    89.3271      1423
    89.3414      1409
    89.3557      1373
    89.3700      1512
    89.3843      1366
    89.3986      1444
    89.4129      1425
    89.4272      1311
    89.4415      1279
    89.4558      1277
    89.4701      1372
    89.4844      1308
    89.4987      1380
    89.5130      1361
    89.5273      1279
    89.5416      1308
    89.5559      1324
    89.5702      1354
    89.5845      1329
    89.5988      1290
    89.6131      1260
    89.6274      1306
    89.6417      1309
    89.6560      1282
    89.6703      1304
    89.6846      1304
    89.6989      1266
    89.7132      1289
    89.7275      1297
    89.7418      1286
    89.7561      1280
    89.7704      1267
    89.7847      1241
    89.7990      1270
    89.8133      1242
    89.8276      1238
    89.8419      1247
    89.8562      1336
    89.8705      1241
    89.8848      1298
    89.8991      1291
    89.9134      1280
    89.9277      1290
    89.9420      1270
    89.9563      1293
    89.9706      1295
    89.9849      1349
    89.9992      1333
    90.0135      1292
